wavelength (nm),refractive index
200,1.55179
200.2,1.55152
200.4,1.55124
200.6,1.55097
200.8,1.5507
201,1.55042
201.2,1.55015
201.4,1.54988
201.6,1.54961
201.8,1.54934
202,1.54907
202.2,1.5488
202.4,1.54853
202.6,1.54826
202.8,1.548
203,1.54773
203.2,1.54746
203.4,1.5472
203.6,1.54693
203.8,1.54667
204,1.5464
204.2,1.54614
204.4,1.54587
204.6,1.54561
204.8,1.54535
205,1.54508
205.2,1.54482
205.4,1.54456
205.6,1.5443
205.8,1.54404
206,1.54378
206.2,1.54352
206.4,1.54326
206.6,1.543
206.8,1.54275
207,1.54251
207.2,1.54226
207.4,1.54201
207.6,1.54177
207.8,1.54152
208,1.54128
208.2,1.54103
208.4,1.54079
208.6,1.54054
208.8,1.5403
209,1.54006
209.2,1.53982
209.4,1.53957
209.6,1.53933
209.8,1.53909
210,1.53885
210.2,1.53861
210.4,1.53837
210.6,1.53813
210.8,1.53789
211,1.53765
211.2,1.53741
211.4,1.53718
211.6,1.53694
211.8,1.5367
212,1.53647
212.2,1.53623
212.4,1.53599
212.6,1.53576
212.8,1.53552
213,1.53529
213.2,1.53506
213.4,1.53482
213.6,1.53459
213.8,1.53436
214,1.53415
214.2,1.53395
214.4,1.53375
214.6,1.53356
214.8,1.53337
215,1.53318
215.2,1.533
215.4,1.53281
215.6,1.53263
215.8,1.53244
216,1.53226
216.2,1.53207
216.4,1.53189
216.6,1.5317
216.8,1.53152
217,1.53134
217.2,1.53115
217.4,1.53097
217.6,1.53079
217.8,1.5306
218,1.53042
218.2,1.53024
218.4,1.53006
218.6,1.52988
218.8,1.5297
219,1.52952
219.2,1.52934
219.4,1.52916
219.6,1.52898
219.8,1.5288
220,1.52862
220.2,1.52844
220.4,1.52826
220.6,1.52809
220.8,1.52791
221,1.52773
221.2,1.52755
221.4,1.52738
221.6,1.5272
221.8,1.52702
222,1.52685
222.2,1.52667
222.4,1.5265
222.6,1.52632
222.8,1.52615
223,1.52597
223.2,1.5258
223.4,1.52563
223.6,1.52545
223.8,1.52528
224,1.52511
224.2,1.52493
224.4,1.52476
224.6,1.52459
224.8,1.52442
225,1.52425
225.2,1.52407
225.4,1.5239
225.6,1.52373
225.8,1.52356
226,1.52339
226.2,1.52322
226.4,1.52305
226.6,1.52288
226.8,1.52272
227,1.52256
227.2,1.52241
227.4,1.52225
227.6,1.5221
227.8,1.52194
228,1.52178
228.2,1.52163
228.4,1.52148
228.6,1.52132
228.8,1.52117
229,1.52101
229.2,1.52086
229.4,1.52071
229.6,1.52055
229.8,1.5204
230,1.52025
230.2,1.5201
230.4,1.51995
230.6,1.51981
230.8,1.51966
231,1.51952
231.2,1.51938
231.4,1.51923
231.6,1.51909
231.8,1.51895
232,1.5188
232.2,1.51866
232.4,1.51852
232.6,1.51838
232.8,1.51823
233,1.51809
233.2,1.51795
233.4,1.51781
233.6,1.51767
233.8,1.51753
234,1.51739
234.2,1.51725
234.4,1.51711
234.6,1.51697
234.8,1.51683
235,1.51669
235.2,1.51655
235.4,1.51641
235.6,1.51627
235.8,1.51613
236,1.516
236.2,1.51586
236.4,1.51572
236.6,1.51558
236.8,1.51545
237,1.51531
237.2,1.51517
237.4,1.51504
237.6,1.5149
237.8,1.51476
238,1.51463
238.2,1.5145
238.4,1.51437
238.6,1.51424
238.8,1.51411
239,1.51398
239.2,1.51385
239.4,1.51373
239.6,1.5136
239.8,1.51347
240,1.51334
240.2,1.51322
240.4,1.5131
240.6,1.51297
240.8,1.51285
241,1.51273
241.2,1.51261
241.4,1.51248
241.6,1.51236
241.8,1.51224
242,1.51212
242.2,1.512
242.4,1.51188
242.6,1.51176
242.8,1.51164
243,1.51152
243.2,1.5114
243.4,1.51128
243.6,1.51116
243.8,1.51104
244,1.51092
244.2,1.5108
244.4,1.51068
244.6,1.51056
244.8,1.51044
245,1.51032
245.2,1.5102
245.4,1.51009
245.6,1.50997
245.8,1.50985
246,1.50973
246.2,1.50962
246.4,1.5095
246.6,1.50938
246.8,1.50926
247,1.50915
247.2,1.50903
247.4,1.50892
247.6,1.5088
247.8,1.50868
248,1.50857
248.2,1.50845
248.4,1.50834
248.6,1.50824
248.8,1.50813
249,1.50803
249.2,1.50792
249.4,1.50782
249.6,1.50771
249.8,1.50761
250,1.50751
250.2,1.5074
250.4,1.5073
250.6,1.5072
250.8,1.50709
251,1.50699
251.2,1.50689
251.4,1.50678
251.6,1.50668
251.8,1.50658
252,1.50647
252.2,1.50637
252.4,1.50627
252.6,1.50617
252.8,1.50607
253,1.50596
253.2,1.50586
253.4,1.50576
253.6,1.50566
253.8,1.50556
254,1.50546
254.2,1.50536
254.4,1.50526
254.6,1.50516
254.8,1.50506
255,1.50496
255.2,1.50486
255.4,1.50476
255.6,1.50466
255.8,1.50456
256,1.50446
256.2,1.50436
256.4,1.50426
256.6,1.50416
256.8,1.50406
257,1.50396
257.2,1.50387
257.4,1.50377
257.6,1.50367
257.8,1.50357
258,1.50347
258.2,1.50337
258.4,1.50328
258.6,1.50318
258.8,1.50308
259,1.50299
259.2,1.50289
259.4,1.50279
259.6,1.50269
259.8,1.5026
260,1.5025
260.2,1.5024
260.4,1.50231
260.6,1.50221
260.8,1.50212
261,1.50202
261.2,1.50193
261.4,1.50183
261.6,1.50173
261.8,1.50164
262,1.50154
262.2,1.50145
262.4,1.50135
262.6,1.50126
262.8,1.50117
263,1.50107
263.2,1.50098
263.4,1.50088
263.6,1.50079
263.8,1.50069
264,1.5006
264.2,1.50051
264.4,1.50041
264.6,1.50032
264.8,1.50023
265,1.50013
265.2,1.50004
265.4,1.49996
265.6,1.49987
265.8,1.49978
266,1.4997
266.2,1.49961
266.4,1.49953
266.6,1.49944
266.8,1.49935
267,1.49927
267.2,1.49918
267.4,1.4991
267.6,1.49901
267.8,1.49893
268,1.49884
268.2,1.49876
268.4,1.49867
268.6,1.49859
268.8,1.49851
269,1.49842
269.2,1.49834
269.4,1.49825
269.6,1.49817
269.8,1.49809
270,1.498
270.2,1.49792
270.4,1.49784
270.6,1.49776
270.8,1.49768
271,1.4976
271.2,1.49752
271.4,1.49744
271.6,1.49736
271.8,1.49728
272,1.4972
272.2,1.49713
272.4,1.49705
272.6,1.49697
272.8,1.49689
273,1.49681
273.2,1.49673
273.4,1.49665
273.6,1.49657
273.8,1.4965
274,1.49642
274.2,1.49634
274.4,1.49626
274.6,1.49618
274.8,1.49611
275,1.49603
275.2,1.49595
275.4,1.49587
275.6,1.4958
275.8,1.49572
276,1.49565
276.2,1.49557
276.4,1.4955
276.6,1.49542
276.8,1.49535
277,1.49527
277.2,1.4952
277.4,1.49512
277.6,1.49505
277.8,1.49498
278,1.4949
278.2,1.49483
278.4,1.49475
278.6,1.49468
278.8,1.49461
279,1.49453
279.2,1.49446
279.4,1.49439
279.6,1.49431
279.8,1.49424
280,1.49417
280.2,1.49409
280.4,1.49402
280.6,1.49395
280.8,1.49388
281,1.49381
281.2,1.49374
281.4,1.49367
281.6,1.4936
281.8,1.49354
282,1.49347
282.2,1.4934
282.4,1.49333
282.6,1.49326
282.8,1.49319
283,1.49312
283.2,1.49305
283.4,1.49299
283.6,1.49292
283.8,1.49285
284,1.49278
284.2,1.49271
284.4,1.49265
284.6,1.49258
284.8,1.49251
285,1.49244
285.2,1.49237
285.4,1.49231
285.6,1.49224
285.8,1.49217
286,1.49211
286.2,1.49204
286.4,1.49197
286.6,1.4919
286.8,1.49184
287,1.49177
287.2,1.4917
287.4,1.49164
287.6,1.49157
287.8,1.4915
288,1.49144
288.2,1.49137
288.4,1.49131
288.6,1.49124
288.8,1.49117
289,1.49111
289.2,1.49104
289.4,1.49098
289.6,1.49091
289.8,1.49085
290,1.49079
290.2,1.49073
290.4,1.49066
290.6,1.4906
290.8,1.49054
291,1.49048
291.2,1.49042
291.4,1.49035
291.6,1.49029
291.8,1.49023
292,1.49017
292.2,1.49011
292.4,1.49004
292.6,1.48998
292.8,1.48992
293,1.48986
293.2,1.4898
293.4,1.48974
293.6,1.48968
293.8,1.48961
294,1.48955
294.2,1.48949
294.4,1.48943
294.6,1.48937
294.8,1.48931
295,1.48925
295.2,1.48919
295.4,1.48913
295.6,1.48907
295.8,1.48901
296,1.48895
296.2,1.48889
296.4,1.48883
296.6,1.48877
296.8,1.48871
297,1.48865
297.2,1.48859
297.4,1.48854
297.6,1.48848
297.8,1.48842
298,1.48836
298.2,1.48831
298.4,1.48825
298.6,1.48819
298.8,1.48814
299,1.48808
299.2,1.48802
299.4,1.48796
299.6,1.48791
299.8,1.48785
300,1.48779
300.2,1.48774
300.4,1.48768
300.6,1.48762
300.8,1.48757
301,1.48751
301.2,1.48746
301.4,1.4874
301.6,1.48734
301.8,1.48729
302,1.48723
302.2,1.48718
302.4,1.48713
302.6,1.48707
302.8,1.48702
303,1.48697
303.2,1.48692
303.4,1.48687
303.6,1.48682
303.8,1.48677
304,1.48671
304.2,1.48666
304.4,1.48661
304.6,1.48656
304.8,1.48651
305,1.48646
305.2,1.48641
305.4,1.48636
305.6,1.48631
305.8,1.48626
306,1.48621
306.2,1.48616
306.4,1.48611
306.6,1.48606
306.8,1.48601
307,1.48596
307.2,1.48591
307.4,1.48586
307.6,1.48581
307.8,1.48576
308,1.48571
308.2,1.48566
308.4,1.48561
308.6,1.48556
308.8,1.48551
309,1.48546
309.2,1.48541
309.4,1.48536
309.6,1.48531
309.8,1.48526
310,1.48521
310.2,1.48516
310.4,1.48511
310.6,1.48506
310.8,1.48502
311,1.48497
311.2,1.48492
311.4,1.48487
311.6,1.48482
311.8,1.48477
312,1.48472
312.2,1.48467
312.4,1.48463
312.6,1.48458
312.8,1.48453
313,1.48448
313.2,1.48443
313.4,1.48438
313.6,1.48434
313.8,1.48429
314,1.48424
314.2,1.48419
314.4,1.48414
314.6,1.4841
314.8,1.48405
315,1.484
315.2,1.48395
315.4,1.48391
315.6,1.48386
315.8,1.48381
316,1.48376
316.2,1.48372
316.4,1.48367
316.6,1.48362
316.8,1.48358
317,1.48353
317.2,1.48348
317.4,1.48343
317.6,1.48339
317.8,1.48334
318,1.48329
318.2,1.48325
318.4,1.4832
318.6,1.48315
318.8,1.48311
319,1.48306
319.2,1.48301
319.4,1.48297
319.6,1.48292
319.8,1.48287
320,1.48283
320.2,1.48278
320.4,1.48274
320.6,1.48269
320.8,1.48264
321,1.4826
321.2,1.48255
321.4,1.48251
321.6,1.48246
321.8,1.48241
322,1.48237
322.2,1.48232
322.4,1.48228
322.6,1.48223
322.8,1.48219
323,1.48214
323.2,1.4821
323.4,1.48205
323.6,1.48201
323.8,1.48196
324,1.48192
324.2,1.48187
324.4,1.48183
324.6,1.48178
324.8,1.48174
325,1.48169
325.2,1.48165
325.4,1.4816
325.6,1.48156
325.8,1.48151
326,1.48147
326.2,1.48142
326.4,1.48138
326.6,1.48133
326.8,1.48129
327,1.48124
327.2,1.4812
327.4,1.48116
327.6,1.48111
327.8,1.48107
328,1.48102
328.2,1.48098
328.4,1.48094
328.6,1.48089
328.8,1.48085
329,1.4808
329.2,1.48076
329.4,1.48072
329.6,1.48067
329.8,1.48063
330,1.48059
330.2,1.48054
330.4,1.4805
330.6,1.48046
330.8,1.48042
331,1.48038
331.2,1.48034
331.4,1.4803
331.6,1.48026
331.8,1.48022
332,1.48018
332.2,1.48014
332.4,1.4801
332.6,1.48006
332.8,1.48002
333,1.47999
333.2,1.47995
333.4,1.47991
333.6,1.47987
333.8,1.47983
334,1.47979
334.2,1.47975
334.4,1.47971
334.6,1.47967
334.8,1.47963
335,1.4796
335.2,1.47956
335.4,1.47952
335.6,1.47948
335.8,1.47944
336,1.4794
336.2,1.47937
336.4,1.47933
336.6,1.47929
336.8,1.47925
337,1.47921
337.2,1.47918
337.4,1.47914
337.6,1.4791
337.8,1.47906
338,1.47902
338.2,1.47899
338.4,1.47895
338.6,1.47891
338.8,1.47887
339,1.47884
339.2,1.4788
339.4,1.47876
339.6,1.47872
339.8,1.47869
340,1.47865
340.2,1.47861
340.4,1.47857
340.6,1.47854
340.8,1.4785
341,1.47846
341.2,1.47843
341.4,1.47839
341.6,1.47836
341.8,1.47832
342,1.47828
342.2,1.47825
342.4,1.47821
342.6,1.47818
342.8,1.47814
343,1.4781
343.2,1.47807
343.4,1.47803
343.6,1.478
343.8,1.47796
344,1.47792
344.2,1.47789
344.4,1.47785
344.6,1.47782
344.8,1.47778
345,1.47775
345.2,1.47771
345.4,1.47768
345.6,1.47764
345.8,1.4776
346,1.47757
346.2,1.47753
346.4,1.4775
346.6,1.47746
346.8,1.47743
347,1.4774
347.2,1.47736
347.4,1.47733
347.6,1.4773
347.8,1.47726
348,1.47723
348.2,1.47719
348.4,1.47716
348.6,1.47713
348.8,1.47709
349,1.47706
349.2,1.47703
349.4,1.47699
349.6,1.47696
349.8,1.47693
350,1.47689
350.2,1.47686
350.4,1.47683
350.6,1.4768
350.8,1.47676
351,1.47673
351.2,1.4767
351.4,1.47666
351.6,1.47663
351.8,1.4766
352,1.47657
352.2,1.47653
352.4,1.4765
352.6,1.47647
352.8,1.47643
353,1.4764
353.2,1.47637
353.4,1.47634
353.6,1.4763
353.8,1.47627
354,1.47624
354.2,1.47621
354.4,1.47618
354.6,1.47614
354.8,1.47611
355,1.47608
355.2,1.47605
355.4,1.47601
355.6,1.47598
355.8,1.47595
356,1.47592
356.2,1.47589
356.4,1.47585
356.6,1.47582
356.8,1.47579
357,1.47576
357.2,1.47573
357.4,1.47569
357.6,1.47566
357.8,1.47563
358,1.4756
358.2,1.47557
358.4,1.47554
358.6,1.4755
358.8,1.47547
359,1.47544
359.2,1.47541
359.4,1.47538
359.6,1.47535
359.8,1.47532
360,1.47528
360.2,1.47525
360.4,1.47522
360.6,1.47519
360.8,1.47516
361,1.47513
361.2,1.4751
361.4,1.47507
361.6,1.47504
361.8,1.47501
362,1.47498
362.2,1.47495
362.4,1.47492
362.6,1.47489
362.8,1.47486
363,1.47483
363.2,1.4748
363.4,1.47477
363.6,1.47474
363.8,1.47471
364,1.47468
364.2,1.47465
364.4,1.47462
364.6,1.47459
364.8,1.47456
365,1.47453
365.2,1.4745
365.4,1.47448
365.6,1.47445
365.8,1.47442
366,1.4744
366.2,1.47437
366.4,1.47434
366.6,1.47431
366.8,1.47429
367,1.47426
367.2,1.47423
367.4,1.4742
367.6,1.47418
367.8,1.47415
368,1.47412
368.2,1.4741
368.4,1.47407
368.6,1.47404
368.8,1.47402
369,1.47399
369.2,1.47396
369.4,1.47393
369.6,1.47391
369.8,1.47388
370,1.47385
370.2,1.47383
370.4,1.4738
370.6,1.47377
370.8,1.47375
371,1.47372
371.2,1.47369
371.4,1.47367
371.6,1.47364
371.8,1.47361
372,1.47359
372.2,1.47356
372.4,1.47354
372.6,1.47351
372.8,1.47348
373,1.47346
373.2,1.47343
373.4,1.4734
373.6,1.47338
373.8,1.47335
374,1.47332
374.2,1.4733
374.4,1.47327
374.6,1.47325
374.8,1.47322
375,1.47319
375.2,1.47317
375.4,1.47314
375.6,1.47312
375.8,1.47309
376,1.47306
376.2,1.47304
376.4,1.47301
376.6,1.47299
376.8,1.47296
377,1.47294
377.2,1.47291
377.4,1.47288
377.6,1.47286
377.8,1.47283
378,1.47281
378.2,1.47278
378.4,1.47276
378.6,1.47273
378.8,1.4727
379,1.47268
379.2,1.47265
379.4,1.47263
379.6,1.4726
379.8,1.47258
380,1.47255
380.2,1.47253
380.4,1.4725
380.6,1.47248
380.8,1.47245
381,1.47242
381.2,1.4724
381.4,1.47237
381.6,1.47235
381.8,1.47232
382,1.4723
382.2,1.47227
382.4,1.47225
382.6,1.47222
382.8,1.4722
383,1.47217
383.2,1.47215
383.4,1.47212
383.6,1.4721
383.8,1.47207
384,1.47205
384.2,1.47202
384.4,1.472
384.6,1.47197
384.8,1.47195
385,1.47192
385.2,1.4719
385.4,1.47188
385.6,1.47185
385.8,1.47183
386,1.4718
386.2,1.47178
386.4,1.47175
386.6,1.47173
386.8,1.4717
387,1.47168
387.2,1.47165
387.4,1.47163
387.6,1.47161
387.8,1.47158
388,1.47156
388.2,1.47153
388.4,1.47151
388.6,1.47148
388.8,1.47146
389,1.47144
389.2,1.47141
389.4,1.47139
389.6,1.47136
389.8,1.47134
390,1.47131
390.2,1.47129
390.4,1.47127
390.6,1.47124
390.8,1.47122
391,1.47119
391.2,1.47117
391.4,1.47115
391.6,1.47112
391.8,1.4711
392,1.47107
392.2,1.47105
392.4,1.47103
392.6,1.471
392.8,1.47098
393,1.47096
393.2,1.47093
393.4,1.47091
393.6,1.47088
393.8,1.47086
394,1.47084
394.2,1.47081
394.4,1.47079
394.6,1.47077
394.8,1.47074
395,1.47072
395.2,1.4707
395.4,1.47067
395.6,1.47065
395.8,1.47063
396,1.4706
396.2,1.47058
396.4,1.47055
396.6,1.47053
396.8,1.47051
397,1.47048
397.2,1.47046
397.4,1.47044
397.6,1.47042
397.8,1.47039
398,1.47037
398.2,1.47035
398.4,1.47032
398.6,1.4703
398.8,1.47028
399,1.47025
399.2,1.47023
399.4,1.47021
399.6,1.47018
399.8,1.47016
400,1.47014
400.2,1.47012
400.4,1.47009
400.6,1.47007
400.8,1.47005
401,1.47002
401.2,1.47
401.4,1.46998
401.6,1.46996
401.8,1.46993
402,1.46991
402.2,1.46989
402.4,1.46986
402.6,1.46984
402.8,1.46982
403,1.4698
403.2,1.46977
403.4,1.46975
403.6,1.46973
403.8,1.46971
404,1.46968
404.2,1.46966
404.4,1.46964
404.6,1.46962
404.8,1.4696
405,1.46958
405.2,1.46956
405.4,1.46954
405.6,1.46952
405.8,1.4695
406,1.46948
406.2,1.46945
406.4,1.46944
406.6,1.46942
406.8,1.4694
407,1.46938
407.2,1.46936
407.4,1.46934
407.6,1.46932
407.8,1.4693
408,1.46928
408.2,1.46926
408.4,1.46924
408.6,1.46922
408.8,1.4692
409,1.46918
409.2,1.46916
409.4,1.46914
409.6,1.46912
409.8,1.4691
410,1.46908
410.2,1.46906
410.4,1.46904
410.6,1.46902
410.8,1.469
411,1.46898
411.2,1.46896
411.4,1.46894
411.6,1.46892
411.8,1.4689
412,1.46888
412.2,1.46886
412.4,1.46884
412.6,1.46882
412.8,1.46881
413,1.46879
413.2,1.46877
413.4,1.46875
413.6,1.46873
413.8,1.46871
414,1.46869
414.2,1.46867
414.4,1.46865
414.6,1.46863
414.8,1.46861
415,1.46859
415.2,1.46857
415.4,1.46855
415.6,1.46854
415.8,1.46852
416,1.4685
416.2,1.46848
416.4,1.46846
416.6,1.46844
416.8,1.46842
417,1.4684
417.2,1.46838
417.4,1.46836
417.6,1.46835
417.8,1.46833
418,1.46831
418.2,1.46829
418.4,1.46827
418.6,1.46825
418.8,1.46823
419,1.46821
419.2,1.46819
419.4,1.46818
419.6,1.46816
419.8,1.46814
420,1.46812
420.2,1.4681
420.4,1.46808
420.6,1.46806
420.8,1.46804
421,1.46803
421.2,1.46801
421.4,1.46799
421.6,1.46797
421.8,1.46795
422,1.46793
422.2,1.46791
422.4,1.4679
422.6,1.46788
422.8,1.46786
423,1.46784
423.2,1.46782
423.4,1.4678
423.6,1.46779
423.8,1.46777
424,1.46775
424.2,1.46773
424.4,1.46771
424.6,1.46769
424.8,1.46768
425,1.46766
425.2,1.46764
425.4,1.46762
425.6,1.4676
425.8,1.46758
426,1.46757
426.2,1.46755
426.4,1.46753
426.6,1.46751
426.8,1.46749
427,1.46747
427.2,1.46746
427.4,1.46744
427.6,1.46742
427.8,1.4674
428,1.46738
428.2,1.46737
428.4,1.46735
428.6,1.46733
428.8,1.46731
429,1.46729
429.2,1.46728
429.4,1.46726
429.6,1.46724
429.8,1.46722
430,1.4672
430.2,1.46719
430.4,1.46717
430.6,1.46715
430.8,1.46713
431,1.46712
431.2,1.4671
431.4,1.46708
431.6,1.46706
431.8,1.46704
432,1.46703
432.2,1.46701
432.4,1.46699
432.6,1.46697
432.8,1.46696
433,1.46694
433.2,1.46692
433.4,1.4669
433.6,1.46689
433.8,1.46687
434,1.46685
434.2,1.46683
434.4,1.46682
434.6,1.4668
434.8,1.46678
435,1.46676
435.2,1.46675
435.4,1.46673
435.6,1.46671
435.8,1.46669
436,1.46668
436.2,1.46666
436.4,1.46664
436.6,1.46663
436.8,1.46661
437,1.4666
437.2,1.46658
437.4,1.46656
437.6,1.46655
437.8,1.46653
438,1.46652
438.2,1.4665
438.4,1.46648
438.6,1.46647
438.8,1.46645
439,1.46644
439.2,1.46642
439.4,1.46641
439.6,1.46639
439.8,1.46637
440,1.46636
440.2,1.46634
440.4,1.46633
440.6,1.46631
440.8,1.46629
441,1.46628
441.2,1.46626
441.4,1.46625
441.6,1.46623
441.8,1.46622
442,1.4662
442.2,1.46618
442.4,1.46617
442.6,1.46615
442.8,1.46614
443,1.46612
443.2,1.46611
443.4,1.46609
443.6,1.46608
443.8,1.46606
444,1.46604
444.2,1.46603
444.4,1.46601
444.6,1.466
444.8,1.46598
445,1.46597
445.2,1.46595
445.4,1.46594
445.6,1.46592
445.8,1.46591
446,1.46589
446.2,1.46587
446.4,1.46586
446.6,1.46584
446.8,1.46583
447,1.46581
447.2,1.4658
447.4,1.46578
447.6,1.46577
447.8,1.46575
448,1.46574
448.2,1.46572
448.4,1.46571
448.6,1.46569
448.8,1.46568
449,1.46566
449.2,1.46565
449.4,1.46563
449.6,1.46562
449.8,1.4656
450,1.46559
450.2,1.46557
450.4,1.46556
450.6,1.46554
450.8,1.46553
451,1.46551
451.2,1.46549
451.4,1.46548
451.6,1.46546
451.8,1.46545
452,1.46543
452.2,1.46542
452.4,1.46541
452.6,1.46539
452.8,1.46538
453,1.46536
453.2,1.46535
453.4,1.46533
453.6,1.46532
453.8,1.4653
454,1.46529
454.2,1.46527
454.4,1.46526
454.6,1.46524
454.8,1.46523
455,1.46521
455.2,1.4652
455.4,1.46518
455.6,1.46517
455.8,1.46515
456,1.46514
456.2,1.46512
456.4,1.46511
456.6,1.46509
456.8,1.46508
457,1.46506
457.2,1.46505
457.4,1.46504
457.6,1.46502
457.8,1.46501
458,1.46499
458.2,1.46498
458.4,1.46496
458.6,1.46495
458.8,1.46493
459,1.46492
459.2,1.4649
459.4,1.46489
459.6,1.46488
459.8,1.46486
460,1.46485
460.2,1.46483
460.4,1.46482
460.6,1.4648
460.8,1.46479
461,1.46477
461.2,1.46476
461.4,1.46475
461.6,1.46473
461.8,1.46472
462,1.4647
462.2,1.46469
462.4,1.46467
462.6,1.46466
462.8,1.46464
463,1.46463
463.2,1.46462
463.4,1.4646
463.6,1.46459
463.8,1.46457
464,1.46456
464.2,1.46454
464.4,1.46453
464.6,1.46452
464.8,1.4645
465,1.46449
465.2,1.46447
465.4,1.46446
465.6,1.46445
465.8,1.46443
466,1.46442
466.2,1.4644
466.4,1.46439
466.6,1.46438
466.8,1.46436
467,1.46435
467.2,1.46433
467.4,1.46432
467.6,1.46431
467.8,1.46429
468,1.46428
468.2,1.46426
468.4,1.46425
468.6,1.46424
468.8,1.46423
469,1.46421
469.2,1.4642
469.4,1.46419
469.6,1.46417
469.8,1.46416
470,1.46415
470.2,1.46413
470.4,1.46412
470.6,1.46411
470.8,1.46409
471,1.46408
471.2,1.46407
471.4,1.46406
471.6,1.46404
471.8,1.46403
472,1.46402
472.2,1.464
472.4,1.46399
472.6,1.46398
472.8,1.46397
473,1.46395
473.2,1.46394
473.4,1.46393
473.6,1.46391
473.8,1.4639
474,1.46389
474.2,1.46388
474.4,1.46386
474.6,1.46385
474.8,1.46384
475,1.46382
475.2,1.46381
475.4,1.4638
475.6,1.46379
475.8,1.46377
476,1.46376
476.2,1.46375
476.4,1.46374
476.6,1.46372
476.8,1.46371
477,1.4637
477.2,1.46368
477.4,1.46367
477.6,1.46366
477.8,1.46365
478,1.46363
478.2,1.46362
478.4,1.46361
478.6,1.4636
478.8,1.46358
479,1.46357
479.2,1.46356
479.4,1.46355
479.6,1.46353
479.8,1.46352
480,1.46351
480.2,1.4635
480.4,1.46348
480.6,1.46347
480.8,1.46346
481,1.46345
481.2,1.46343
481.4,1.46342
481.6,1.46341
481.8,1.4634
482,1.46338
482.2,1.46337
482.4,1.46336
482.6,1.46335
482.8,1.46333
483,1.46332
483.2,1.46331
483.4,1.4633
483.6,1.46329
483.8,1.46327
484,1.46326
484.2,1.46325
484.4,1.46324
484.6,1.46322
484.8,1.46321
485,1.4632
485.2,1.46319
485.4,1.46317
485.6,1.46316
485.8,1.46315
486,1.46314
486.2,1.46313
486.4,1.46311
486.6,1.4631
486.8,1.46309
487,1.46308
487.2,1.46307
487.4,1.46306
487.6,1.46304
487.8,1.46303
488,1.46302
488.2,1.46301
488.4,1.463
488.6,1.46299
488.8,1.46297
489,1.46296
489.2,1.46295
489.4,1.46294
489.6,1.46293
489.8,1.46292
490,1.4629
490.2,1.46289
490.4,1.46288
490.6,1.46287
490.8,1.46286
491,1.46285
491.2,1.46284
491.4,1.46282
491.6,1.46281
491.8,1.4628
492,1.46279
492.2,1.46278
492.4,1.46277
492.6,1.46276
492.8,1.46274
493,1.46273
493.2,1.46272
493.4,1.46271
493.6,1.4627
493.8,1.46269
494,1.46268
494.2,1.46266
494.4,1.46265
494.6,1.46264
494.8,1.46263
495,1.46262
495.2,1.46261
495.4,1.4626
495.6,1.46258
495.8,1.46257
496,1.46256
496.2,1.46255
496.4,1.46254
496.6,1.46253
496.8,1.46252
497,1.46251
497.2,1.46249
497.4,1.46248
497.6,1.46247
497.8,1.46246
498,1.46245
498.2,1.46244
498.4,1.46243
498.6,1.46242
498.8,1.46241
499,1.46239
499.2,1.46238
499.4,1.46237
499.6,1.46236
499.8,1.46235
500,1.46234
500.2,1.46233
500.4,1.46232
500.6,1.46231
500.8,1.46229
501,1.46228
501.2,1.46227
501.4,1.46226
501.6,1.46225
501.8,1.46224
502,1.46223
502.2,1.46222
502.4,1.46221
502.6,1.46219
502.8,1.46218
503,1.46217
503.2,1.46216
503.4,1.46215
503.6,1.46214
503.8,1.46213
504,1.46212
504.2,1.46211
504.4,1.4621
504.6,1.46209
504.8,1.46207
505,1.46206
505.2,1.46205
505.4,1.46204
505.6,1.46203
505.8,1.46202
506,1.46201
506.2,1.462
506.4,1.46199
506.6,1.46198
506.8,1.46197
507,1.46196
507.2,1.46194
507.4,1.46193
507.6,1.46192
507.8,1.46191
508,1.4619
508.2,1.46189
508.4,1.46188
508.6,1.46187
508.8,1.46186
509,1.46185
509.2,1.46184
509.4,1.46183
509.6,1.46182
509.8,1.46181
510,1.4618
510.2,1.46179
510.4,1.46178
510.6,1.46177
510.8,1.46176
511,1.46175
511.2,1.46174
511.4,1.46173
511.6,1.46172
511.8,1.46171
512,1.4617
512.2,1.46169
512.4,1.46168
512.6,1.46167
512.8,1.46166
513,1.46165
513.2,1.46164
513.4,1.46163
513.6,1.46162
513.8,1.46161
514,1.4616
514.2,1.46159
514.4,1.46158
514.6,1.46157
514.8,1.46156
515,1.46155
515.2,1.46154
515.4,1.46153
515.6,1.46152
515.8,1.46151
516,1.4615
516.2,1.46149
516.4,1.46148
516.6,1.46147
516.8,1.46146
517,1.46145
517.2,1.46144
517.4,1.46143
517.6,1.46142
517.8,1.46141
518,1.4614
518.2,1.46139
518.4,1.46138
518.6,1.46137
518.8,1.46136
519,1.46135
519.2,1.46134
519.4,1.46133
519.6,1.46132
519.8,1.46131
520,1.4613
520.2,1.46129
520.4,1.46128
520.6,1.46127
520.8,1.46126
521,1.46125
521.2,1.46124
521.4,1.46123
521.6,1.46122
521.8,1.46121
522,1.4612
522.2,1.46119
522.4,1.46118
522.6,1.46117
522.8,1.46116
523,1.46115
523.2,1.46114
523.4,1.46113
523.6,1.46112
523.8,1.46111
524,1.4611
524.2,1.46109
524.4,1.46108
524.6,1.46107
524.8,1.46106
525,1.46105
525.2,1.46105
525.4,1.46104
525.6,1.46103
525.8,1.46102
526,1.46101
526.2,1.461
526.4,1.46099
526.6,1.46098
526.8,1.46097
527,1.46096
527.2,1.46095
527.4,1.46094
527.6,1.46093
527.8,1.46092
528,1.46091
528.2,1.4609
528.4,1.46089
528.6,1.46088
528.8,1.46087
529,1.46086
529.2,1.46085
529.4,1.46085
529.6,1.46084
529.8,1.46083
530,1.46082
530.2,1.46081
530.4,1.4608
530.6,1.46079
530.8,1.46078
531,1.46077
531.2,1.46076
531.4,1.46075
531.6,1.46074
531.8,1.46073
532,1.46072
532.2,1.46071
532.4,1.4607
532.6,1.46069
532.8,1.46069
533,1.46068
533.2,1.46067
533.4,1.46066
533.6,1.46065
533.8,1.46064
534,1.46063
534.2,1.46062
534.4,1.46061
534.6,1.4606
534.8,1.46059
535,1.46058
535.2,1.46057
535.4,1.46056
535.6,1.46056
535.8,1.46055
536,1.46054
536.2,1.46053
536.4,1.46052
536.6,1.46051
536.8,1.4605
537,1.46049
537.2,1.46048
537.4,1.46047
537.6,1.46046
537.8,1.46045
538,1.46044
538.2,1.46044
538.4,1.46043
538.6,1.46042
538.8,1.46041
539,1.4604
539.2,1.46039
539.4,1.46038
539.6,1.46037
539.8,1.46036
540,1.46035
540.2,1.46034
540.4,1.46034
540.6,1.46033
540.8,1.46032
541,1.46031
541.2,1.4603
541.4,1.46029
541.6,1.46028
541.8,1.46027
542,1.46026
542.2,1.46025
542.4,1.46024
542.6,1.46024
542.8,1.46023
543,1.46022
543.2,1.46021
543.4,1.4602
543.6,1.46019
543.8,1.46018
544,1.46017
544.2,1.46016
544.4,1.46015
544.6,1.46015
544.8,1.46014
545,1.46013
545.2,1.46012
545.4,1.46011
545.6,1.4601
545.8,1.46009
546,1.46008
546.2,1.46007
546.4,1.46007
546.6,1.46006
546.8,1.46005
547,1.46004
547.2,1.46003
547.4,1.46002
547.6,1.46002
547.8,1.46001
548,1.46
548.2,1.45999
548.4,1.45998
548.6,1.45997
548.8,1.45997
549,1.45996
549.2,1.45995
549.4,1.45994
549.6,1.45993
549.8,1.45992
550,1.45992
550.2,1.45991
550.4,1.4599
550.6,1.45989
550.8,1.45988
551,1.45987
551.2,1.45987
551.4,1.45986
551.6,1.45985
551.8,1.45984
552,1.45983
552.2,1.45983
552.4,1.45982
552.6,1.45981
552.8,1.4598
553,1.45979
553.2,1.45978
553.4,1.45978
553.6,1.45977
553.8,1.45976
554,1.45975
554.2,1.45974
554.4,1.45974
554.6,1.45973
554.8,1.45972
555,1.45971
555.2,1.4597
555.4,1.45969
555.6,1.45969
555.8,1.45968
556,1.45967
556.2,1.45966
556.4,1.45965
556.6,1.45965
556.8,1.45964
557,1.45963
557.2,1.45962
557.4,1.45961
557.6,1.45961
557.8,1.4596
558,1.45959
558.2,1.45958
558.4,1.45957
558.6,1.45956
558.8,1.45956
559,1.45955
559.2,1.45954
559.4,1.45953
559.6,1.45952
559.8,1.45952
560,1.45951
560.2,1.4595
560.4,1.45949
560.6,1.45948
560.8,1.45948
561,1.45947
561.2,1.45946
561.4,1.45945
561.6,1.45944
561.8,1.45944
562,1.45943
562.2,1.45942
562.4,1.45941
562.6,1.45941
562.8,1.4594
563,1.45939
563.2,1.45938
563.4,1.45937
563.6,1.45937
563.8,1.45936
564,1.45935
564.2,1.45934
564.4,1.45933
564.6,1.45933
564.8,1.45932
565,1.45931
565.2,1.4593
565.4,1.45929
565.6,1.45929
565.8,1.45928
566,1.45927
566.2,1.45926
566.4,1.45926
566.6,1.45925
566.8,1.45924
567,1.45923
567.2,1.45922
567.4,1.45922
567.6,1.45921
567.8,1.4592
568,1.45919
568.2,1.45919
568.4,1.45918
568.6,1.45917
568.8,1.45916
569,1.45915
569.2,1.45915
569.4,1.45914
569.6,1.45913
569.8,1.45912
570,1.45912
570.2,1.45911
570.4,1.4591
570.6,1.45909
570.8,1.45908
571,1.45908
571.2,1.45907
571.4,1.45906
571.6,1.45905
571.8,1.45905
572,1.45904
572.2,1.45903
572.4,1.45902
572.6,1.45902
572.8,1.45901
573,1.459
573.2,1.45899
573.4,1.45899
573.6,1.45898
573.8,1.45897
574,1.45896
574.2,1.45895
574.4,1.45895
574.6,1.45894
574.8,1.45893
575,1.45892
575.2,1.45892
575.4,1.45891
575.6,1.4589
575.8,1.45889
576,1.45889
576.2,1.45888
576.4,1.45887
576.6,1.45886
576.8,1.45886
577,1.45885
577.2,1.45884
577.4,1.45883
577.6,1.45883
577.8,1.45882
578,1.45881
578.2,1.4588
578.4,1.4588
578.6,1.45879
578.8,1.45878
579,1.45877
579.2,1.45877
579.4,1.45876
579.6,1.45875
579.8,1.45874
580,1.45874
580.2,1.45873
580.4,1.45872
580.6,1.45872
580.8,1.45871
581,1.4587
581.2,1.45869
581.4,1.45869
581.6,1.45868
581.8,1.45867
582,1.45867
582.2,1.45866
582.4,1.45865
582.6,1.45864
582.8,1.45864
583,1.45863
583.2,1.45862
583.4,1.45862
583.6,1.45861
583.8,1.4586
584,1.45859
584.2,1.45859
584.4,1.45858
584.6,1.45857
584.8,1.45857
585,1.45856
585.2,1.45855
585.4,1.45855
585.6,1.45854
585.8,1.45853
586,1.45852
586.2,1.45852
586.4,1.45851
586.6,1.4585
586.8,1.4585
587,1.45849
587.2,1.45848
587.4,1.45848
587.6,1.45847
587.8,1.45846
588,1.45845
588.2,1.45845
588.4,1.45844
588.6,1.45843
588.8,1.45843
589,1.45842
589.2,1.45841
589.4,1.45841
589.6,1.4584
589.8,1.45839
590,1.45838
590.2,1.45838
590.4,1.45837
590.6,1.45836
590.8,1.45836
591,1.45835
591.2,1.45834
591.4,1.45834
591.6,1.45833
591.8,1.45832
592,1.45832
592.2,1.45831
592.4,1.4583
592.6,1.4583
592.8,1.45829
593,1.45828
593.2,1.45828
593.4,1.45827
593.6,1.45826
593.8,1.45826
594,1.45825
594.2,1.45824
594.4,1.45824
594.6,1.45823
594.8,1.45822
595,1.45822
595.2,1.45821
595.4,1.4582
595.6,1.4582
595.8,1.45819
596,1.45818
596.2,1.45818
596.4,1.45817
596.6,1.45816
596.8,1.45816
597,1.45815
597.2,1.45814
597.4,1.45814
597.6,1.45813
597.8,1.45812
598,1.45812
598.2,1.45811
598.4,1.4581
598.6,1.4581
598.8,1.45809
599,1.45808
599.2,1.45808
599.4,1.45807
599.6,1.45806
599.8,1.45806
600,1.45805
600.2,1.45804
600.4,1.45804
600.6,1.45803
600.8,1.45803
601,1.45802
601.2,1.45801
601.4,1.45801
601.6,1.458
601.8,1.45799
602,1.45799
602.2,1.45798
602.4,1.45797
602.6,1.45797
602.8,1.45796
603,1.45795
603.2,1.45795
603.4,1.45794
603.6,1.45793
603.8,1.45793
604,1.45792
604.2,1.45791
604.4,1.45791
604.6,1.4579
604.8,1.4579
605,1.45789
605.2,1.45788
605.4,1.45788
605.6,1.45787
605.8,1.45786
606,1.45786
606.2,1.45785
606.4,1.45784
606.6,1.45784
606.8,1.45783
607,1.45782
607.2,1.45782
607.4,1.45781
607.6,1.45781
607.8,1.4578
608,1.45779
608.2,1.45779
608.4,1.45778
608.6,1.45777
608.8,1.45777
609,1.45776
609.2,1.45775
609.4,1.45775
609.6,1.45774
609.8,1.45773
610,1.45773
610.2,1.45772
610.4,1.45772
610.6,1.45771
610.8,1.4577
611,1.4577
611.2,1.45769
611.4,1.45768
611.6,1.45768
611.8,1.45767
612,1.45767
612.2,1.45766
612.4,1.45765
612.6,1.45765
612.8,1.45764
613,1.45763
613.2,1.45763
613.4,1.45762
613.6,1.45761
613.8,1.45761
614,1.4576
614.2,1.4576
614.4,1.45759
614.6,1.45758
614.8,1.45758
615,1.45757
615.2,1.45756
615.4,1.45756
615.6,1.45755
615.8,1.45755
616,1.45754
616.2,1.45753
616.4,1.45753
616.6,1.45752
616.8,1.45751
617,1.45751
617.2,1.4575
617.4,1.4575
617.6,1.45749
617.8,1.45748
618,1.45748
618.2,1.45747
618.4,1.45747
618.6,1.45746
618.8,1.45745
619,1.45745
619.2,1.45744
619.4,1.45743
619.6,1.45743
619.8,1.45742
620,1.45742
620.2,1.45741
620.4,1.4574
620.6,1.4574
620.8,1.45739
621,1.45739
621.2,1.45738
621.4,1.45737
621.6,1.45737
621.8,1.45736
622,1.45735
622.2,1.45735
622.4,1.45734
622.6,1.45734
622.8,1.45733
623,1.45732
623.2,1.45732
623.4,1.45731
623.6,1.45731
623.8,1.4573
624,1.45729
624.2,1.45729
624.4,1.45728
624.6,1.45728
624.8,1.45727
625,1.45726
625.2,1.45726
625.4,1.45725
625.6,1.45725
625.8,1.45724
626,1.45723
626.2,1.45723
626.4,1.45722
626.6,1.45722
626.8,1.45721
627,1.4572
627.2,1.4572
627.4,1.45719
627.6,1.45719
627.8,1.45718
628,1.45717
628.2,1.45717
628.4,1.45716
628.6,1.45716
628.8,1.45715
629,1.45714
629.2,1.45714
629.4,1.45713
629.6,1.45713
629.8,1.45712
630,1.45711
630.2,1.45711
630.4,1.4571
630.6,1.4571
630.8,1.45709
631,1.45708
631.2,1.45708
631.4,1.45707
631.6,1.45707
631.8,1.45706
632,1.45705
632.2,1.45705
632.4,1.45704
632.6,1.45704
632.8,1.45703
633,1.45702
633.2,1.45702
633.4,1.45701
633.6,1.45701
633.8,1.457
634,1.457
634.2,1.45699
634.4,1.45698
634.6,1.45698
634.8,1.45697
635,1.45697
635.2,1.45696
635.4,1.45695
635.6,1.45695
635.8,1.45694
636,1.45694
636.2,1.45693
636.4,1.45692
636.6,1.45692
636.8,1.45691
637,1.45691
637.2,1.4569
637.4,1.4569
637.6,1.45689
637.8,1.45688
638,1.45688
638.2,1.45687
638.4,1.45687
638.6,1.45686
638.8,1.45686
639,1.45685
639.2,1.45684
639.4,1.45684
639.6,1.45683
639.8,1.45683
640,1.45682
640.2,1.45681
640.4,1.45681
640.6,1.4568
640.8,1.4568
641,1.45679
641.2,1.45679
641.4,1.45678
641.6,1.45677
641.8,1.45677
642,1.45676
642.2,1.45676
642.4,1.45675
642.6,1.45675
642.8,1.45674
643,1.45673
643.2,1.45673
643.4,1.45672
643.6,1.45672
643.8,1.45671
644,1.45671
644.2,1.4567
644.4,1.45669
644.6,1.45669
644.8,1.45668
645,1.45668
645.2,1.45667
645.4,1.45667
645.6,1.45666
645.8,1.45666
646,1.45665
646.2,1.45664
646.4,1.45664
646.6,1.45663
646.8,1.45663
647,1.45662
647.2,1.45662
647.4,1.45661
647.6,1.45661
647.8,1.4566
648,1.45659
648.2,1.45659
648.4,1.45658
648.6,1.45658
648.8,1.45657
649,1.45657
649.2,1.45656
649.4,1.45656
649.6,1.45655
649.8,1.45655
650,1.45654
650.2,1.45653
650.4,1.45653
650.6,1.45652
650.8,1.45652
651,1.45651
651.2,1.45651
651.4,1.4565
651.6,1.4565
651.8,1.45649
652,1.45649
652.2,1.45648
652.4,1.45647
652.6,1.45647
652.8,1.45646
653,1.45646
653.2,1.45645
653.4,1.45645
653.6,1.45644
653.8,1.45644
654,1.45643
654.2,1.45643
654.4,1.45642
654.6,1.45642
654.8,1.45641
655,1.4564
655.2,1.4564
655.4,1.45639
655.6,1.45639
655.8,1.45638
656,1.45638
656.2,1.45637
656.4,1.45637
656.6,1.45636
656.8,1.45636
657,1.45635
657.2,1.45635
657.4,1.45634
657.6,1.45634
657.8,1.45633
658,1.45633
658.2,1.45632
658.4,1.45632
658.6,1.45631
658.8,1.45631
659,1.4563
659.2,1.4563
659.4,1.45629
659.6,1.45629
659.8,1.45628
660,1.45628
660.2,1.45627
660.4,1.45627
660.6,1.45626
660.8,1.45626
661,1.45625
661.2,1.45624
661.4,1.45624
661.6,1.45623
661.8,1.45623
662,1.45622
662.2,1.45622
662.4,1.45621
662.6,1.45621
662.8,1.4562
663,1.4562
663.2,1.45619
663.4,1.45619
663.6,1.45618
663.8,1.45618
664,1.45617
664.2,1.45617
664.4,1.45616
664.6,1.45616
664.8,1.45615
665,1.45615
665.2,1.45614
665.4,1.45614
665.6,1.45613
665.8,1.45613
666,1.45612
666.2,1.45612
666.4,1.45612
666.6,1.45611
666.8,1.45611
667,1.4561
667.2,1.4561
667.4,1.45609
667.6,1.45609
667.8,1.45608
668,1.45608
668.2,1.45607
668.4,1.45607
668.6,1.45606
668.8,1.45606
669,1.45605
669.2,1.45604
669.4,1.45604
669.6,1.45603
669.8,1.45603
670,1.45602
670.2,1.45602
670.4,1.45601
670.6,1.45601
670.8,1.456
671,1.456
671.2,1.45599
671.4,1.45599
671.6,1.45598
671.8,1.45598
672,1.45597
672.2,1.45597
672.4,1.45596
672.6,1.45596
672.8,1.45595
673,1.45595
673.2,1.45594
673.4,1.45594
673.6,1.45593
673.8,1.45593
674,1.45592
674.2,1.45592
674.4,1.45591
674.6,1.45591
674.8,1.4559
675,1.4559
675.2,1.45589
675.4,1.45589
675.6,1.45588
675.8,1.45588
676,1.45587
676.2,1.45587
676.4,1.45586
676.6,1.45586
676.8,1.45585
677,1.45585
677.2,1.45584
677.4,1.45584
677.6,1.45583
677.8,1.45583
678,1.45583
678.2,1.45582
678.4,1.45582
678.6,1.45581
678.8,1.45581
679,1.4558
679.2,1.4558
679.4,1.45579
679.6,1.45579
679.8,1.45578
680,1.45578
680.2,1.45577
680.4,1.45577
680.6,1.45576
680.8,1.45576
681,1.45575
681.2,1.45575
681.4,1.45574
681.6,1.45574
681.8,1.45573
682,1.45573
682.2,1.45572
682.4,1.45572
682.6,1.45571
682.8,1.45571
683,1.4557
683.2,1.4557
683.4,1.45569
683.6,1.45569
683.8,1.45568
684,1.45568
684.2,1.45567
684.4,1.45567
684.6,1.45566
684.8,1.45566
685,1.45565
685.2,1.45565
685.4,1.45564
685.6,1.45564
685.8,1.45563
686,1.45563
686.2,1.45563
686.4,1.45562
686.6,1.45562
686.8,1.45561
687,1.45561
687.2,1.4556
687.4,1.4556
687.6,1.45559
687.8,1.45559
688,1.45558
688.2,1.45558
688.4,1.45557
688.6,1.45557
688.8,1.45556
689,1.45556
689.2,1.45555
689.4,1.45555
689.6,1.45554
689.8,1.45554
690,1.45553
690.2,1.45553
690.4,1.45552
690.6,1.45552
690.8,1.45552
691,1.45551
691.2,1.45551
691.4,1.4555
691.6,1.4555
691.8,1.45549
692,1.45549
692.2,1.45548
692.4,1.45548
692.6,1.45547
692.8,1.45547
693,1.45546
693.2,1.45546
693.4,1.45545
693.6,1.45545
693.8,1.45544
694,1.45544
694.2,1.45543
694.4,1.45543
694.6,1.45543
694.8,1.45542
695,1.45542
695.2,1.45541
695.4,1.45541
695.6,1.4554
695.8,1.4554
696,1.45539
696.2,1.45539
696.4,1.45538
696.6,1.45538
696.8,1.45537
697,1.45537
697.2,1.45536
697.4,1.45536
697.6,1.45536
697.8,1.45535
698,1.45535
698.2,1.45534
698.4,1.45534
698.6,1.45533
698.8,1.45533
699,1.45532
699.2,1.45532
699.4,1.45531
699.6,1.45531
699.8,1.4553
700,1.4553
700.2,1.45529
700.4,1.45529
700.6,1.45529
700.8,1.45528
701,1.45528
701.2,1.45527
701.4,1.45527
701.6,1.45526
701.8,1.45526
702,1.45525
702.2,1.45525
702.4,1.45524
702.6,1.45524
702.8,1.45523
703,1.45523
703.2,1.45523
703.4,1.45522
703.6,1.45522
703.8,1.45521
704,1.45521
704.2,1.4552
704.4,1.4552
704.6,1.45519
704.8,1.45519
705,1.45518
705.2,1.45518
705.4,1.45518
705.6,1.45517
705.8,1.45517
706,1.45516
706.2,1.45516
706.4,1.45515
706.6,1.45515
706.8,1.45514
707,1.45514
707.2,1.45513
707.4,1.45513
707.6,1.45513
707.8,1.45512
708,1.45512
708.2,1.45511
708.4,1.45511
708.6,1.4551
708.8,1.4551
709,1.4551
709.2,1.45509
709.4,1.45509
709.6,1.45508
709.8,1.45508
710,1.45507
710.2,1.45507
710.4,1.45506
710.6,1.45506
710.8,1.45506
711,1.45505
711.2,1.45505
711.4,1.45504
711.6,1.45504
711.8,1.45503
712,1.45503
712.2,1.45503
712.4,1.45502
712.6,1.45502
712.8,1.45501
713,1.45501
713.2,1.455
713.4,1.455
713.6,1.455
713.8,1.45499
714,1.45499
714.2,1.45498
714.4,1.45498
714.6,1.45497
714.8,1.45497
715,1.45496
715.2,1.45496
715.4,1.45496
715.6,1.45495
715.8,1.45495
716,1.45494
716.2,1.45494
716.4,1.45493
716.6,1.45493
716.8,1.45493
717,1.45492
717.2,1.45492
717.4,1.45491
717.6,1.45491
717.8,1.4549
718,1.4549
718.2,1.4549
718.4,1.45489
718.6,1.45489
718.8,1.45488
719,1.45488
719.2,1.45487
719.4,1.45487
719.6,1.45487
719.8,1.45486
720,1.45486
720.2,1.45485
720.4,1.45485
720.6,1.45484
720.8,1.45484
721,1.45484
721.2,1.45483
721.4,1.45483
721.6,1.45482
721.8,1.45482
722,1.45482
722.2,1.45481
722.4,1.45481
722.6,1.4548
722.8,1.4548
723,1.45479
723.2,1.45479
723.4,1.45479
723.6,1.45478
723.8,1.45478
724,1.45477
724.2,1.45477
724.4,1.45476
724.6,1.45476
724.8,1.45476
725,1.45475
725.2,1.45475
725.4,1.45474
725.6,1.45474
725.8,1.45474
726,1.45473
726.2,1.45473
726.4,1.45472
726.6,1.45472
726.8,1.45471
727,1.45471
727.2,1.45471
727.4,1.4547
727.6,1.4547
727.8,1.45469
728,1.45469
728.2,1.45469
728.4,1.45468
728.6,1.45468
728.8,1.45467
729,1.45467
729.2,1.45466
729.4,1.45466
729.6,1.45466
729.8,1.45465
730,1.45465
730.2,1.45464
730.4,1.45464
730.6,1.45464
730.8,1.45463
731,1.45463
731.2,1.45462
731.4,1.45462
731.6,1.45461
731.8,1.45461
732,1.45461
732.2,1.4546
732.4,1.4546
732.6,1.45459
732.8,1.45459
733,1.45459
733.2,1.45458
733.4,1.45458
733.6,1.45457
733.8,1.45457
734,1.45457
734.2,1.45456
734.4,1.45456
734.6,1.45455
734.8,1.45455
735,1.45454
735.2,1.45454
735.4,1.45454
735.6,1.45453
735.8,1.45453
736,1.45452
736.2,1.45452
736.4,1.45452
736.6,1.45451
736.8,1.45451
737,1.4545
737.2,1.4545
737.4,1.4545
737.6,1.45449
737.8,1.45449
738,1.45448
738.2,1.45448
738.4,1.45448
738.6,1.45447
738.8,1.45447
739,1.45446
739.2,1.45446
739.4,1.45446
739.6,1.45445
739.8,1.45445
740,1.45444
740.2,1.45444
740.4,1.45444
740.6,1.45443
740.8,1.45443
741,1.45442
741.2,1.45442
741.4,1.45442
741.6,1.45441
741.8,1.45441
742,1.4544
742.2,1.4544
742.4,1.4544
742.6,1.45439
742.8,1.45439
743,1.45438
743.2,1.45438
743.4,1.45438
743.6,1.45437
743.8,1.45437
744,1.45436
744.2,1.45436
744.4,1.45436
744.6,1.45435
744.8,1.45435
745,1.45434
745.2,1.45434
745.4,1.45434
745.6,1.45433
745.8,1.45433
746,1.45432
746.2,1.45432
746.4,1.45432
746.6,1.45431
746.8,1.45431
747,1.4543
747.2,1.4543
747.4,1.4543
747.6,1.45429
747.8,1.45429
748,1.45428
748.2,1.45428
748.4,1.45428
748.6,1.45427
748.8,1.45427
749,1.45426
749.2,1.45426
749.4,1.45426
749.6,1.45425
749.8,1.45425
750,1.45424
750.2,1.45424
750.4,1.45424
750.6,1.45423
750.8,1.45423
751,1.45422
751.2,1.45422
751.4,1.45422
751.6,1.45421
751.8,1.45421
752,1.45421
752.2,1.4542
752.4,1.4542
752.6,1.45419
752.8,1.45419
753,1.45419
753.2,1.45418
753.4,1.45418
753.6,1.45417
753.8,1.45417
754,1.45417
754.2,1.45416
754.4,1.45416
754.6,1.45415
754.8,1.45415
755,1.45415
755.2,1.45414
755.4,1.45414
755.6,1.45414
755.8,1.45413
756,1.45413
756.2,1.45412
756.4,1.45412
756.6,1.45412
756.8,1.45411
757,1.45411
757.2,1.4541
757.4,1.4541
757.6,1.4541
757.8,1.45409
758,1.45409
758.2,1.45409
758.4,1.45408
758.6,1.45408
758.8,1.45407
759,1.45407
759.2,1.45407
759.4,1.45406
759.6,1.45406
759.8,1.45405
760,1.45405
760.2,1.45405
760.4,1.45404
760.6,1.45404
760.8,1.45404
761,1.45403
761.2,1.45403
761.4,1.45402
761.6,1.45402
761.8,1.45402
762,1.45401
762.2,1.45401
762.4,1.45401
762.6,1.454
762.8,1.454
763,1.45399
763.2,1.45399
763.4,1.45399
763.6,1.45398
763.8,1.45398
764,1.45397
764.2,1.45397
764.4,1.45397
764.6,1.45396
764.8,1.45396
765,1.45396
765.2,1.45395
765.4,1.45395
765.6,1.45394
765.8,1.45394
766,1.45394
766.2,1.45393
766.4,1.45393
766.6,1.45393
766.8,1.45392
767,1.45392
767.2,1.45391
767.4,1.45391
767.6,1.45391
767.8,1.4539
768,1.4539
768.2,1.4539
768.4,1.45389
768.6,1.45389
768.8,1.45388
769,1.45388
769.2,1.45388
769.4,1.45387
769.6,1.45387
769.8,1.45387
770,1.45386
770.2,1.45386
770.4,1.45385
770.6,1.45385
770.8,1.45385
771,1.45384
771.2,1.45384
771.4,1.45384
771.6,1.45383
771.8,1.45383
772,1.45383
772.2,1.45382
772.4,1.45382
772.6,1.45381
772.8,1.45381
773,1.45381
773.2,1.4538
773.4,1.4538
773.6,1.4538
773.8,1.45379
774,1.45379
774.2,1.45378
774.4,1.45378
774.6,1.45378
774.8,1.45377
775,1.45377
775.2,1.45377
775.4,1.45376
775.6,1.45376
775.8,1.45376
776,1.45375
776.2,1.45375
776.4,1.45374
776.6,1.45374
776.8,1.45374
777,1.45373
777.2,1.45373
777.4,1.45373
777.6,1.45372
777.8,1.45372
778,1.45371
778.2,1.45371
778.4,1.45371
778.6,1.4537
778.8,1.4537
779,1.4537
779.2,1.45369
779.4,1.45369
779.6,1.45369
779.8,1.45368
780,1.45368
780.2,1.45367
780.4,1.45367
780.6,1.45367
780.8,1.45366
781,1.45366
781.2,1.45366
781.4,1.45365
781.6,1.45365
781.8,1.45365
782,1.45364
782.2,1.45364
782.4,1.45364
782.6,1.45363
782.8,1.45363
783,1.45362
783.2,1.45362
783.4,1.45362
783.6,1.45361
783.8,1.45361
784,1.45361
784.2,1.4536
784.4,1.4536
784.6,1.4536
784.8,1.45359
785,1.45359
785.2,1.45358
785.4,1.45358
785.6,1.45358
785.8,1.45357
786,1.45357
786.2,1.45357
786.4,1.45356
786.6,1.45356
786.8,1.45356
787,1.45355
787.2,1.45355
787.4,1.45355
787.6,1.45354
787.8,1.45354
788,1.45353
788.2,1.45353
788.4,1.45353
788.6,1.45352
788.8,1.45352
789,1.45352
789.2,1.45351
789.4,1.45351
789.6,1.45351
789.8,1.4535
790,1.4535
790.2,1.4535
790.4,1.45349
790.6,1.45349
790.8,1.45349
791,1.45348
791.2,1.45348
791.4,1.45347
791.6,1.45347
791.8,1.45347
792,1.45346
792.2,1.45346
792.4,1.45346
792.6,1.45345
792.8,1.45345
793,1.45345
793.2,1.45344
793.4,1.45344
793.6,1.45344
793.8,1.45343
794,1.45343
794.2,1.45343
794.4,1.45342
794.6,1.45342
794.8,1.45341
795,1.45341
795.2,1.45341
795.4,1.4534
795.6,1.4534
795.8,1.4534
796,1.45339
796.2,1.45339
796.4,1.45339
796.6,1.45338
796.8,1.45338
797,1.45338
797.2,1.45337
797.4,1.45337
797.6,1.45337
797.8,1.45336
798,1.45336
798.2,1.45336
798.4,1.45335
798.6,1.45335
798.8,1.45335
799,1.45334
799.2,1.45334
799.4,1.45333
799.6,1.45333
799.8,1.45333
800,1.45332
800.2,1.45332
800.4,1.45332
800.6,1.45331
800.8,1.45331
801,1.45331
801.2,1.4533
801.4,1.4533
801.6,1.4533
801.8,1.45329
802,1.45329
802.2,1.45329
802.4,1.45328
802.6,1.45328
802.8,1.45328
803,1.45327
803.2,1.45327
803.4,1.45327
803.6,1.45326
803.8,1.45326
804,1.45326
804.2,1.45325
804.4,1.45325
804.6,1.45325
804.8,1.45324
805,1.45324
805.2,1.45324
805.4,1.45323
805.6,1.45323
805.8,1.45323
806,1.45322
806.2,1.45322
806.4,1.45321
806.6,1.45321
806.8,1.45321
807,1.4532
807.2,1.4532
807.4,1.4532
807.6,1.45319
807.8,1.45319
808,1.45319
808.2,1.45318
808.4,1.45318
808.6,1.45318
808.8,1.45317
809,1.45317
809.2,1.45317
809.4,1.45316
809.6,1.45316
809.8,1.45316
810,1.45315
810.2,1.45315
810.4,1.45315
810.6,1.45314
810.8,1.45314
811,1.45314
811.2,1.45313
811.4,1.45313
811.6,1.45313
811.8,1.45312
812,1.45312
812.2,1.45312
812.4,1.45311
812.6,1.45311
812.8,1.45311
813,1.4531
813.2,1.4531
813.4,1.4531
813.6,1.45309
813.8,1.45309
814,1.45309
814.2,1.45308
814.4,1.45308
814.6,1.45308
814.8,1.45307
815,1.45307
815.2,1.45307
815.4,1.45306
815.6,1.45306
815.8,1.45306
816,1.45305
816.2,1.45305
816.4,1.45305
816.6,1.45304
816.8,1.45304
817,1.45304
817.2,1.45303
817.4,1.45303
817.6,1.45303
817.8,1.45302
818,1.45302
818.2,1.45302
818.4,1.45301
818.6,1.45301
818.8,1.45301
819,1.453
819.2,1.453
819.4,1.453
819.6,1.45299
819.8,1.45299
820,1.45299
820.2,1.45298
820.4,1.45298
820.6,1.45298
820.8,1.45297
821,1.45297
821.2,1.45297
821.4,1.45296
821.6,1.45296
821.8,1.45296
822,1.45295
822.2,1.45295
822.4,1.45295
822.6,1.45295
822.8,1.45294
823,1.45294
823.2,1.45294
823.4,1.45293
823.6,1.45293
823.8,1.45293
824,1.45292
824.2,1.45292
824.4,1.45292
824.6,1.45291
824.8,1.45291
825,1.45291
825.2,1.4529
825.4,1.4529
825.6,1.4529
825.8,1.45289
826,1.45289
826.2,1.45289
826.4,1.45288
826.6,1.45288
826.8,1.45288
827,1.45287
827.2,1.45287
827.4,1.45287
827.6,1.45286
827.8,1.45286
828,1.45286
828.2,1.45285
828.4,1.45285
828.6,1.45285
828.8,1.45284
829,1.45284
829.2,1.45284
829.4,1.45284
829.6,1.45283
829.8,1.45283
830,1.45283
830.2,1.45282
830.4,1.45282
830.6,1.45282
830.8,1.45281
831,1.45281
831.2,1.45281
831.4,1.4528
831.6,1.4528
831.8,1.4528
832,1.45279
832.2,1.45279
832.4,1.45279
832.6,1.45278
832.8,1.45278
833,1.45278
833.2,1.45277
833.4,1.45277
833.6,1.45277
833.8,1.45276
834,1.45276
834.2,1.45276
834.4,1.45276
834.6,1.45275
834.8,1.45275
835,1.45275
835.2,1.45274
835.4,1.45274
835.6,1.45274
835.8,1.45273
836,1.45273
836.2,1.45273
836.4,1.45272
836.6,1.45272
836.8,1.45272
837,1.45271
837.2,1.45271
837.4,1.45271
837.6,1.4527
837.8,1.4527
838,1.4527
838.2,1.4527
838.4,1.45269
838.6,1.45269
838.8,1.45269
839,1.45268
839.2,1.45268
839.4,1.45268
839.6,1.45267
839.8,1.45267
840,1.45267
840.2,1.45266
840.4,1.45266
840.6,1.45266
840.8,1.45265
841,1.45265
841.2,1.45265
841.4,1.45265
841.6,1.45264
841.8,1.45264
842,1.45264
842.2,1.45263
842.4,1.45263
842.6,1.45263
842.8,1.45262
843,1.45262
843.2,1.45262
843.4,1.45261
843.6,1.45261
843.8,1.45261
844,1.4526
844.2,1.4526
844.4,1.4526
844.6,1.4526
844.8,1.45259
845,1.45259
845.2,1.45259
845.4,1.45258
845.6,1.45258
845.8,1.45258
846,1.45257
846.2,1.45257
846.4,1.45257
846.6,1.45256
846.8,1.45256
847,1.45256
847.2,1.45256
847.4,1.45255
847.6,1.45255
847.8,1.45255
848,1.45254
848.2,1.45254
848.4,1.45254
848.6,1.45253
848.8,1.45253
849,1.45253
849.2,1.45252
849.4,1.45252
849.6,1.45252
849.8,1.45252
850,1.45251
850.2,1.45251
850.4,1.45251
850.6,1.4525
850.8,1.4525
851,1.4525
851.2,1.45249
851.4,1.45249
851.6,1.45249
851.8,1.45248
852,1.45248
852.2,1.45248
852.4,1.45248
852.6,1.45247
852.8,1.45247
853,1.45247
853.2,1.45246
853.4,1.45246
853.6,1.45246
853.8,1.45245
854,1.45245
854.2,1.45245
854.4,1.45244
854.6,1.45244
854.8,1.45244
855,1.45243
855.2,1.45243
855.4,1.45243
855.6,1.45243
855.8,1.45242
856,1.45242
856.2,1.45242
856.4,1.45241
856.6,1.45241
856.8,1.45241
857,1.4524
857.2,1.4524
857.4,1.4524
857.6,1.45239
857.8,1.45239
858,1.45239
858.2,1.45239
858.4,1.45238
858.6,1.45238
858.8,1.45238
859,1.45237
859.2,1.45237
859.4,1.45237
859.6,1.45236
859.8,1.45236
860,1.45236
860.2,1.45235
860.4,1.45235
860.6,1.45235
860.8,1.45235
861,1.45234
861.2,1.45234
861.4,1.45234
861.6,1.45233
861.8,1.45233
862,1.45233
862.2,1.45232
862.4,1.45232
862.6,1.45232
862.8,1.45231
863,1.45231
863.2,1.45231
863.4,1.45231
863.6,1.4523
863.8,1.4523
864,1.4523
864.2,1.45229
864.4,1.45229
864.6,1.45229
864.8,1.45228
865,1.45228
865.2,1.45228
865.4,1.45228
865.6,1.45227
865.8,1.45227
866,1.45227
866.2,1.45226
866.4,1.45226
866.6,1.45226
866.8,1.45225
867,1.45225
867.2,1.45225
867.4,1.45224
867.6,1.45224
867.8,1.45224
868,1.45224
868.2,1.45223
868.4,1.45223
868.6,1.45223
868.8,1.45222
869,1.45222
869.2,1.45222
869.4,1.45221
869.6,1.45221
869.8,1.45221
870,1.45221
870.2,1.4522
870.4,1.4522
870.6,1.4522
870.8,1.45219
871,1.45219
871.2,1.45219
871.4,1.45218
871.6,1.45218
871.8,1.45218
872,1.45218
872.2,1.45217
872.4,1.45217
872.6,1.45217
872.8,1.45216
873,1.45216
873.2,1.45216
873.4,1.45215
873.6,1.45215
873.8,1.45215
874,1.45215
874.2,1.45214
874.4,1.45214
874.6,1.45214
874.8,1.45213
875,1.45213
875.2,1.45213
875.4,1.45213
875.6,1.45212
875.8,1.45212
876,1.45212
876.2,1.45211
876.4,1.45211
876.6,1.45211
876.8,1.4521
877,1.4521
877.2,1.4521
877.4,1.4521
877.6,1.45209
877.8,1.45209
878,1.45209
878.2,1.45208
878.4,1.45208
878.6,1.45208
878.8,1.45207
879,1.45207
879.2,1.45207
879.4,1.45207
879.6,1.45206
879.8,1.45206
880,1.45206
880.2,1.45205
880.4,1.45205
880.6,1.45205
880.8,1.45205
881,1.45204
881.2,1.45204
881.4,1.45204
881.6,1.45203
881.8,1.45203
882,1.45203
882.2,1.45203
882.4,1.45202
882.6,1.45202
882.8,1.45202
883,1.45201
883.2,1.45201
883.4,1.45201
883.6,1.452
883.8,1.452
884,1.452
884.2,1.452
884.4,1.45199
884.6,1.45199
884.8,1.45199
885,1.45198
885.2,1.45198
885.4,1.45198
885.6,1.45198
885.8,1.45197
886,1.45197
886.2,1.45197
886.4,1.45196
886.6,1.45196
886.8,1.45196
887,1.45196
887.2,1.45195
887.4,1.45195
887.6,1.45195
887.8,1.45194
888,1.45194
888.2,1.45194
888.4,1.45194
888.6,1.45193
888.8,1.45193
889,1.45193
889.2,1.45192
889.4,1.45192
889.6,1.45192
889.8,1.45192
890,1.45191
890.2,1.45191
890.4,1.45191
890.6,1.4519
890.8,1.4519
891,1.4519
891.2,1.45189
891.4,1.45189
891.6,1.45189
891.8,1.45189
892,1.45188
892.2,1.45188
892.4,1.45188
892.6,1.45187
892.8,1.45187
893,1.45187
893.2,1.45187
893.4,1.45186
893.6,1.45186
893.8,1.45186
894,1.45185
894.2,1.45185
894.4,1.45185
894.6,1.45185
894.8,1.45184
895,1.45184
895.2,1.45184
895.4,1.45183
895.6,1.45183
895.8,1.45183
896,1.45183
896.2,1.45182
896.4,1.45182
896.6,1.45182
896.8,1.45181
897,1.45181
897.2,1.45181
897.4,1.4518
897.6,1.4518
897.8,1.4518
898,1.45179
898.2,1.45179
898.4,1.45179
898.6,1.45179
898.8,1.45178
899,1.45178
899.2,1.45178
899.4,1.45177
899.6,1.45177
899.8,1.45177
900,1.45176
900.2,1.45176
900.4,1.45176
900.6,1.45176
900.8,1.45175
901,1.45175
901.2,1.45175
901.4,1.45174
901.6,1.45174
901.8,1.45174
902,1.45174
902.2,1.45173
902.4,1.45173
902.6,1.45173
902.8,1.45172
903,1.45172
903.2,1.45172
903.4,1.45171
903.6,1.45171
903.8,1.45171
904,1.45171
904.2,1.4517
904.4,1.4517
904.6,1.4517
904.8,1.45169
905,1.45169
905.2,1.45169
905.4,1.45168
905.6,1.45168
905.8,1.45168
906,1.45168
906.2,1.45167
906.4,1.45167
906.6,1.45167
906.8,1.45166
907,1.45166
907.2,1.45166
907.4,1.45166
907.6,1.45165
907.8,1.45165
908,1.45165
908.2,1.45164
908.4,1.45164
908.6,1.45164
908.8,1.45163
909,1.45163
909.2,1.45163
909.4,1.45163
909.6,1.45162
909.8,1.45162
910,1.45162
910.2,1.45161
910.4,1.45161
910.6,1.45161
910.8,1.45161
911,1.4516
911.2,1.4516
911.4,1.4516
911.6,1.45159
911.8,1.45159
912,1.45159
912.2,1.45158
912.4,1.45158
912.6,1.45158
912.8,1.45158
913,1.45157
913.2,1.45157
913.4,1.45157
913.6,1.45156
913.8,1.45156
914,1.45156
914.2,1.45156
914.4,1.45155
914.6,1.45155
914.8,1.45155
915,1.45154
915.2,1.45154
915.4,1.45154
915.6,1.45154
915.8,1.45153
916,1.45153
916.2,1.45153
916.4,1.45152
916.6,1.45152
916.8,1.45152
917,1.45152
917.2,1.45151
917.4,1.45151
917.6,1.45151
917.8,1.4515
918,1.4515
918.2,1.4515
918.4,1.4515
918.6,1.45149
918.8,1.45149
919,1.45149
919.2,1.45148
919.4,1.45148
919.6,1.45148
919.8,1.45147
920,1.45147
920.2,1.45147
920.4,1.45147
920.6,1.45146
920.8,1.45146
921,1.45146
921.2,1.45145
921.4,1.45145
921.6,1.45145
921.8,1.45145
922,1.45144
922.2,1.45144
922.4,1.45144
922.6,1.45143
922.8,1.45143
923,1.45143
923.2,1.45143
923.4,1.45142
923.6,1.45142
923.8,1.45142
924,1.45142
924.2,1.45141
924.4,1.45141
924.6,1.45141
924.8,1.4514
925,1.4514
925.2,1.4514
925.4,1.4514
925.6,1.45139
925.8,1.45139
926,1.45139
926.2,1.45138
926.4,1.45138
926.6,1.45138
926.8,1.45138
927,1.45137
927.2,1.45137
927.4,1.45137
927.6,1.45136
927.8,1.45136
928,1.45136
928.2,1.45136
928.4,1.45135
928.6,1.45135
928.8,1.45135
929,1.45134
929.2,1.45134
929.4,1.45134
929.6,1.45134
929.8,1.45133
930,1.45133
930.2,1.45133
930.4,1.45132
930.6,1.45132
930.8,1.45132
931,1.45132
931.2,1.45131
931.4,1.45131
931.6,1.45131
931.8,1.45131
932,1.4513
932.2,1.4513
932.4,1.4513
932.6,1.45129
932.8,1.45129
933,1.45129
933.2,1.45129
933.4,1.45128
933.6,1.45128
933.8,1.45128
934,1.45127
934.2,1.45127
934.4,1.45127
934.6,1.45127
934.8,1.45126
935,1.45126
935.2,1.45126
935.4,1.45126
935.6,1.45125
935.8,1.45125
936,1.45125
936.2,1.45124
936.4,1.45124
936.6,1.45124
936.8,1.45124
937,1.45123
937.2,1.45123
937.4,1.45123
937.6,1.45122
937.8,1.45122
938,1.45122
938.2,1.45122
938.4,1.45121
938.6,1.45121
938.8,1.45121
939,1.45121
939.2,1.4512
939.4,1.4512
939.6,1.4512
939.8,1.45119
940,1.45119
940.2,1.45119
940.4,1.45119
940.6,1.45118
940.8,1.45118
941,1.45118
941.2,1.45118
941.4,1.45117
941.6,1.45117
941.8,1.45117
942,1.45116
942.2,1.45116
942.4,1.45116
942.6,1.45116
942.8,1.45115
943,1.45115
943.2,1.45115
943.4,1.45115
943.6,1.45114
943.8,1.45114
944,1.45114
944.2,1.45113
944.4,1.45113
944.6,1.45113
944.8,1.45113
945,1.45112
945.2,1.45112
945.4,1.45112
945.6,1.45112
945.8,1.45111
946,1.45111
946.2,1.45111
946.4,1.4511
946.6,1.4511
946.8,1.4511
947,1.4511
947.2,1.45109
947.4,1.45109
947.6,1.45109
947.8,1.45109
948,1.45108
948.2,1.45108
948.4,1.45108
948.6,1.45107
948.8,1.45107
949,1.45107
949.2,1.45107
949.4,1.45106
949.6,1.45106
949.8,1.45106
950,1.45106
950.2,1.45105
950.4,1.45105
950.6,1.45105
950.8,1.45105
951,1.45104
951.2,1.45104
951.4,1.45104
951.6,1.45103
951.8,1.45103
952,1.45103
952.2,1.45103
952.4,1.45102
952.6,1.45102
952.8,1.45102
953,1.45102
953.2,1.45101
953.4,1.45101
953.6,1.45101
953.8,1.451
954,1.451
954.2,1.451
954.4,1.451
954.6,1.45099
954.8,1.45099
955,1.45099
955.2,1.45099
955.4,1.45098
955.6,1.45098
955.8,1.45098
956,1.45098
956.2,1.45097
956.4,1.45097
956.6,1.45097
956.8,1.45097
957,1.45096
957.2,1.45096
957.4,1.45096
957.6,1.45095
957.8,1.45095
958,1.45095
958.2,1.45095
958.4,1.45094
958.6,1.45094
958.8,1.45094
959,1.45094
959.2,1.45093
959.4,1.45093
959.6,1.45093
959.8,1.45093
960,1.45092
960.2,1.45092
960.4,1.45092
960.6,1.45091
960.8,1.45091
961,1.45091
961.2,1.45091
961.4,1.4509
961.6,1.4509
961.8,1.4509
962,1.4509
962.2,1.45089
962.4,1.45089
962.6,1.45089
962.8,1.45089
963,1.45088
963.2,1.45088
963.4,1.45088
963.6,1.45088
963.8,1.45087
964,1.45087
964.2,1.45087
964.4,1.45087
964.6,1.45086
964.8,1.45086
965,1.45086
965.2,1.45085
965.4,1.45085
965.6,1.45085
965.8,1.45085
966,1.45084
966.2,1.45084
966.4,1.45084
966.6,1.45084
966.8,1.45083
967,1.45083
967.2,1.45083
967.4,1.45083
967.6,1.45082
967.8,1.45082
968,1.45082
968.2,1.45082
968.4,1.45081
968.6,1.45081
968.8,1.45081
969,1.45081
969.2,1.4508
969.4,1.4508
969.6,1.4508
969.8,1.4508
970,1.45079
970.2,1.45079
970.4,1.45079
970.6,1.45078
970.8,1.45078
971,1.45078
971.2,1.45078
971.4,1.45077
971.6,1.45077
971.8,1.45077
972,1.45077
972.2,1.45076
972.4,1.45076
972.6,1.45076
972.8,1.45076
973,1.45075
973.2,1.45075
973.4,1.45075
973.6,1.45075
973.8,1.45074
974,1.45074
974.2,1.45074
974.4,1.45074
974.6,1.45073
974.8,1.45073
975,1.45073
975.2,1.45073
975.4,1.45072
975.6,1.45072
975.8,1.45072
976,1.45072
976.2,1.45071
976.4,1.45071
976.6,1.45071
976.8,1.45071
977,1.4507
977.2,1.4507
977.4,1.4507
977.6,1.4507
977.8,1.45069
978,1.45069
978.2,1.45069
978.4,1.45069
978.6,1.45068
978.8,1.45068
979,1.45068
979.2,1.45068
979.4,1.45067
979.6,1.45067
979.8,1.45067
980,1.45066
980.2,1.45066
980.4,1.45066
980.6,1.45066
980.8,1.45065
981,1.45065
981.2,1.45065
981.4,1.45065
981.6,1.45064
981.8,1.45064
982,1.45064
982.2,1.45064
982.4,1.45063
982.6,1.45063
982.8,1.45063
983,1.45063
983.2,1.45062
983.4,1.45062
983.6,1.45062
983.8,1.45062
984,1.45061
984.2,1.45061
984.4,1.45061
984.6,1.45061
984.8,1.4506
985,1.4506
985.2,1.4506
985.4,1.4506
985.6,1.45059
985.8,1.45059
986,1.45059
986.2,1.45059
986.4,1.45058
986.6,1.45058
986.8,1.45058
987,1.45058
987.2,1.45057
987.4,1.45057
987.6,1.45057
987.8,1.45057
988,1.45056
988.2,1.45056
988.4,1.45056
988.6,1.45056
988.8,1.45055
989,1.45055
989.2,1.45055
989.4,1.45055
989.6,1.45054
989.8,1.45054
990,1.45054
990.2,1.45054
990.4,1.45053
990.6,1.45053
990.8,1.45053
991,1.45053
991.2,1.45053
991.4,1.45052
991.6,1.45052
991.8,1.45052
992,1.45052
992.2,1.45051
992.4,1.45051
992.6,1.45051
992.8,1.45051
993,1.4505
993.2,1.4505
993.4,1.4505
993.6,1.4505
993.8,1.45049
994,1.45049
994.2,1.45049
994.4,1.45049
994.6,1.45048
994.8,1.45048
995,1.45048
995.2,1.45048
995.4,1.45047
995.6,1.45047
995.8,1.45047
996,1.45047
996.2,1.45046
996.4,1.45046
996.6,1.45046
996.8,1.45046
997,1.45045
997.2,1.45045
997.4,1.45045
997.6,1.45045
997.8,1.45044
998,1.45044
998.2,1.45044
998.4,1.45044
998.6,1.45043
998.8,1.45043
999,1.45043
999.2,1.45043
999.4,1.45042
999.6,1.45042
999.8,1.45042
1000,1.45042
1000.2,1.45041
1000.4,1.45041
1000.6,1.45041
1000.8,1.45041
1001,1.45041
1001.2,1.4504
1001.4,1.4504
1001.6,1.4504
1001.8,1.4504
1002,1.45039
1002.2,1.45039
1002.4,1.45039
1002.6,1.45039
1002.8,1.45038
1003,1.45038
1003.2,1.45038
1003.4,1.45038
1003.6,1.45037
1003.8,1.45037
1004,1.45037
1004.2,1.45037
1004.4,1.45036
1004.6,1.45036
1004.8,1.45036
1005,1.45036
1005.2,1.45035
1005.4,1.45035
1005.6,1.45035
1005.8,1.45035
1006,1.45034
1006.2,1.45034
1006.4,1.45034
1006.6,1.45034
1006.8,1.45034
1007,1.45033
1007.2,1.45033
1007.4,1.45033
1007.6,1.45033
1007.8,1.45032
1008,1.45032
1008.2,1.45032
1008.4,1.45032
1008.6,1.45031
1008.8,1.45031
1009,1.45031
1009.2,1.45031
1009.4,1.4503
1009.6,1.4503
1009.8,1.4503
1010,1.4503
1010.2,1.45029
1010.4,1.45029
1010.6,1.45029
1010.8,1.45029
1011,1.45029
1011.2,1.45028
1011.4,1.45028
1011.6,1.45028
1011.8,1.45028
1012,1.45027
1012.2,1.45027
1012.4,1.45027
1012.6,1.45027
1012.8,1.45026
1013,1.45026
1013.2,1.45026
1013.4,1.45026
1013.6,1.45025
1013.8,1.45025
1014,1.45025
1014.2,1.45025
1014.4,1.45024
1014.6,1.45024
1014.8,1.45024
1015,1.45024
1015.2,1.45023
1015.4,1.45023
1015.6,1.45023
1015.8,1.45023
1016,1.45022
1016.2,1.45022
1016.4,1.45022
1016.6,1.45022
1016.8,1.45021
1017,1.45021
1017.2,1.45021
1017.4,1.45021
1017.6,1.4502
1017.8,1.4502
1018,1.4502
1018.2,1.4502
1018.4,1.45019
1018.6,1.45019
1018.8,1.45019
1019,1.45019
1019.2,1.45018
1019.4,1.45018
1019.6,1.45018
1019.8,1.45017
1020,1.45017
1020.2,1.45017
1020.4,1.45017
1020.6,1.45016
1020.8,1.45016
1021,1.45016
1021.2,1.45016
1021.4,1.45015
1021.6,1.45015
1021.8,1.45015
1022,1.45015
1022.2,1.45014
1022.4,1.45014
1022.6,1.45014
1022.8,1.45014
1023,1.45013
1023.2,1.45013
1023.4,1.45013
1023.6,1.45013
1023.8,1.45012
1024,1.45012
1024.2,1.45012
1024.4,1.45012
1024.6,1.45011
1024.8,1.45011
1025,1.45011
1025.2,1.45011
1025.4,1.4501
1025.6,1.4501
1025.8,1.4501
1026,1.4501
1026.2,1.45009
1026.4,1.45009
1026.6,1.45009
1026.8,1.45009
1027,1.45008
1027.2,1.45008
1027.4,1.45008
1027.6,1.45008
1027.8,1.45007
1028,1.45007
1028.2,1.45007
1028.4,1.45007
1028.6,1.45006
1028.8,1.45006
1029,1.45006
1029.2,1.45006
1029.4,1.45005
1029.6,1.45005
1029.8,1.45005
1030,1.45004
1030.2,1.45004
1030.4,1.45004
1030.6,1.45004
1030.8,1.45003
1031,1.45003
1031.2,1.45003
1031.4,1.45003
1031.6,1.45002
1031.8,1.45002
1032,1.45002
1032.2,1.45002
1032.4,1.45001
1032.6,1.45001
1032.8,1.45001
1033,1.45001
1033.2,1.45
1033.4,1.45
1033.6,1.45
1033.8,1.45
1034,1.44999
1034.2,1.44999
1034.4,1.44999
1034.6,1.44999
1034.8,1.44998
1035,1.44998
1035.2,1.44998
1035.4,1.44998
1035.6,1.44997
1035.8,1.44997
1036,1.44997
1036.2,1.44997
1036.4,1.44996
1036.6,1.44996
1036.8,1.44996
1037,1.44996
1037.2,1.44995
1037.4,1.44995
1037.6,1.44995
1037.8,1.44995
1038,1.44994
1038.2,1.44994
1038.4,1.44994
1038.6,1.44994
1038.8,1.44994
1039,1.44993
1039.2,1.44993
1039.4,1.44993
1039.6,1.44993
1039.8,1.44992
1040,1.44992
1040.2,1.44992
1040.4,1.44992
1040.6,1.44991
1040.8,1.44991
1041,1.44991
1041.2,1.44991
1041.4,1.4499
1041.6,1.4499
1041.8,1.4499
1042,1.4499
1042.2,1.44989
1042.4,1.44989
1042.6,1.44989
1042.8,1.44989
1043,1.44988
1043.2,1.44988
1043.4,1.44988
1043.6,1.44988
1043.8,1.44987
1044,1.44987
1044.2,1.44987
1044.4,1.44987
1044.6,1.44986
1044.8,1.44986
1045,1.44986
1045.2,1.44986
1045.4,1.44985
1045.6,1.44985
1045.8,1.44985
1046,1.44985
1046.2,1.44984
1046.4,1.44984
1046.6,1.44984
1046.8,1.44984
1047,1.44983
1047.2,1.44983
1047.4,1.44983
1047.6,1.44983
1047.8,1.44982
1048,1.44982
1048.2,1.44982
1048.4,1.44982
1048.6,1.44981
1048.8,1.44981
1049,1.44981
1049.2,1.44981
1049.4,1.44981
1049.6,1.4498
1049.8,1.4498
1050,1.4498
1050.2,1.4498
1050.4,1.44979
1050.6,1.44979
1050.8,1.44979
1051,1.44979
1051.2,1.44978
1051.4,1.44978
1051.6,1.44978
1051.8,1.44978
1052,1.44977
1052.2,1.44977
1052.4,1.44977
1052.6,1.44977
1052.8,1.44976
1053,1.44976
1053.2,1.44976
1053.4,1.44976
1053.6,1.44975
1053.8,1.44975
1054,1.44975
1054.2,1.44975
1054.4,1.44974
1054.6,1.44974
1054.8,1.44974
1055,1.44974
1055.2,1.44973
1055.4,1.44973
1055.6,1.44973
1055.8,1.44973
1056,1.44973
1056.2,1.44972
1056.4,1.44972
1056.6,1.44972
1056.8,1.44972
1057,1.44971
1057.2,1.44971
1057.4,1.44971
1057.6,1.44971
1057.8,1.4497
1058,1.4497
1058.2,1.4497
1058.4,1.4497
1058.6,1.44969
1058.8,1.44969
1059,1.44969
1059.2,1.44969
1059.4,1.44968
1059.6,1.44968
1059.8,1.44968
1060,1.44968
1060.2,1.44968
1060.4,1.44967
1060.6,1.44967
1060.8,1.44967
1061,1.44967
1061.2,1.44966
1061.4,1.44966
1061.6,1.44966
1061.8,1.44966
1062,1.44965
1062.2,1.44965
1062.4,1.44965
1062.6,1.44965
1062.8,1.44964
1063,1.44964
1063.2,1.44964
1063.4,1.44964
1063.6,1.44963
1063.8,1.44963
1064,1.44963
1064.2,1.44963
1064.4,1.44963
1064.6,1.44962
1064.8,1.44962
1065,1.44962
1065.2,1.44962
1065.4,1.44961
1065.6,1.44961
1065.8,1.44961
1066,1.44961
1066.2,1.4496
1066.4,1.4496
1066.6,1.4496
1066.8,1.4496
1067,1.44959
1067.2,1.44959
1067.4,1.44959
1067.6,1.44959
1067.8,1.44959
1068,1.44958
1068.2,1.44958
1068.4,1.44958
1068.6,1.44958
1068.8,1.44957
1069,1.44957
1069.2,1.44957
1069.4,1.44957
1069.6,1.44956
1069.8,1.44956
1070,1.44956
1070.2,1.44956
1070.4,1.44956
1070.6,1.44955
1070.8,1.44955
1071,1.44955
1071.2,1.44955
1071.4,1.44954
1071.6,1.44954
1071.8,1.44954
1072,1.44954
1072.2,1.44953
1072.4,1.44953
1072.6,1.44953
1072.8,1.44953
1073,1.44952
1073.2,1.44952
1073.4,1.44952
1073.6,1.44952
1073.8,1.44952
1074,1.44951
1074.2,1.44951
1074.4,1.44951
1074.6,1.44951
1074.8,1.4495
1075,1.4495
1075.2,1.4495
1075.4,1.4495
1075.6,1.44949
1075.8,1.44949
1076,1.44949
1076.2,1.44949
1076.4,1.44949
1076.6,1.44948
1076.8,1.44948
1077,1.44948
1077.2,1.44948
1077.4,1.44947
1077.6,1.44947
1077.8,1.44947
1078,1.44947
1078.2,1.44946
1078.4,1.44946
1078.6,1.44946
1078.8,1.44946
1079,1.44946
1079.2,1.44945
1079.4,1.44945
1079.6,1.44945
1079.8,1.44945
1080,1.44944
1080.2,1.44944
1080.4,1.44944
1080.6,1.44944
1080.8,1.44943
1081,1.44943
1081.2,1.44943
1081.4,1.44943
1081.6,1.44943
1081.8,1.44942
1082,1.44942
1082.2,1.44942
1082.4,1.44942
1082.6,1.44941
1082.8,1.44941
1083,1.44941
1083.2,1.44941
1083.4,1.4494
1083.6,1.4494
1083.8,1.4494
1084,1.4494
1084.2,1.4494
1084.4,1.44939
1084.6,1.44939
1084.8,1.44939
1085,1.44939
1085.2,1.44938
1085.4,1.44938
1085.6,1.44938
1085.8,1.44938
1086,1.44937
1086.2,1.44937
1086.4,1.44937
1086.6,1.44937
1086.8,1.44936
1087,1.44936
1087.2,1.44936
1087.4,1.44936
1087.6,1.44935
1087.8,1.44935
1088,1.44935
1088.2,1.44935
1088.4,1.44934
1088.6,1.44934
1088.8,1.44934
1089,1.44934
1089.2,1.44934
1089.4,1.44933
1089.6,1.44933
1089.8,1.44933
1090,1.44933
1090.2,1.44932
1090.4,1.44932
1090.6,1.44932
1090.8,1.44932
1091,1.44931
1091.2,1.44931
1091.4,1.44931
1091.6,1.44931
1091.8,1.4493
1092,1.4493
1092.2,1.4493
1092.4,1.4493
1092.6,1.44929
1092.8,1.44929
1093,1.44929
1093.2,1.44929
1093.4,1.44929
1093.6,1.44928
1093.8,1.44928
1094,1.44928
1094.2,1.44928
1094.4,1.44927
1094.6,1.44927
1094.8,1.44927
1095,1.44927
1095.2,1.44926
1095.4,1.44926
1095.6,1.44926
1095.8,1.44926
1096,1.44925
1096.2,1.44925
1096.4,1.44925
1096.6,1.44925
1096.8,1.44924
1097,1.44924
1097.2,1.44924
1097.4,1.44924
1097.6,1.44924
1097.8,1.44923
1098,1.44923
1098.2,1.44923
1098.4,1.44923
1098.6,1.44922
1098.8,1.44922
1099,1.44922
1099.2,1.44922
1099.4,1.44921
1099.6,1.44921
1099.8,1.44921
1100,1.44921
1100.2,1.4492
1100.4,1.4492
1100.6,1.4492
1100.8,1.4492
1101,1.4492
1101.2,1.44919
1101.4,1.44919
1101.6,1.44919
1101.8,1.44919
1102,1.44918
1102.2,1.44918
1102.4,1.44918
1102.6,1.44918
1102.8,1.44917
1103,1.44917
1103.2,1.44917
1103.4,1.44917
1103.6,1.44917
1103.8,1.44916
1104,1.44916
1104.2,1.44916
1104.4,1.44916
1104.6,1.44915
1104.8,1.44915
1105,1.44915
1105.2,1.44915
1105.4,1.44914
1105.6,1.44914
1105.8,1.44914
1106,1.44914
1106.2,1.44914
1106.4,1.44913
1106.6,1.44913
1106.8,1.44913
1107,1.44913
1107.2,1.44912
1107.4,1.44912
1107.6,1.44912
1107.8,1.44912
1108,1.44911
1108.2,1.44911
1108.4,1.44911
1108.6,1.44911
1108.8,1.44911
1109,1.4491
1109.2,1.4491
1109.4,1.4491
1109.6,1.4491
1109.8,1.44909
1110,1.44909
1110.2,1.44909
1110.4,1.44909
1110.6,1.44908
1110.8,1.44908
1111,1.44908
1111.2,1.44908
1111.4,1.44908
1111.6,1.44907
1111.8,1.44907
1112,1.44907
1112.2,1.44907
1112.4,1.44906
1112.6,1.44906
1112.8,1.44906
1113,1.44906
1113.2,1.44905
1113.4,1.44905
1113.6,1.44905
1113.8,1.44905
1114,1.44905
1114.2,1.44904
1114.4,1.44904
1114.6,1.44904
1114.8,1.44904
1115,1.44903
1115.2,1.44903
1115.4,1.44903
1115.6,1.44903
1115.8,1.44902
1116,1.44902
1116.2,1.44902
1116.4,1.44902
1116.6,1.44902
1116.8,1.44901
1117,1.44901
1117.2,1.44901
1117.4,1.44901
1117.6,1.449
1117.8,1.449
1118,1.449
1118.2,1.449
1118.4,1.449
1118.6,1.44899
1118.8,1.44899
1119,1.44899
1119.2,1.44899
1119.4,1.44898
1119.6,1.44898
1119.8,1.44898
1120,1.44898
1120.2,1.44897
1120.4,1.44897
1120.6,1.44897
1120.8,1.44897
1121,1.44897
1121.2,1.44896
1121.4,1.44896
1121.6,1.44896
1121.8,1.44896
1122,1.44895
1122.2,1.44895
1122.4,1.44895
1122.6,1.44895
1122.8,1.44895
1123,1.44894
1123.2,1.44894
1123.4,1.44894
1123.6,1.44894
1123.8,1.44893
1124,1.44893
1124.2,1.44893
1124.4,1.44893
1124.6,1.44893
1124.8,1.44892
1125,1.44892
1125.2,1.44892
1125.4,1.44892
1125.6,1.44891
1125.8,1.44891
1126,1.44891
1126.2,1.44891
1126.4,1.44891
1126.6,1.4489
1126.8,1.4489
1127,1.4489
1127.2,1.4489
1127.4,1.44889
1127.6,1.44889
1127.8,1.44889
1128,1.44889
1128.2,1.44889
1128.4,1.44888
1128.6,1.44888
1128.8,1.44888
1129,1.44888
1129.2,1.44887
1129.4,1.44887
1129.6,1.44887
1129.8,1.44886
1130,1.44886
1130.2,1.44886
1130.4,1.44886
1130.6,1.44885
1130.8,1.44885
1131,1.44885
1131.2,1.44885
1131.4,1.44884
1131.6,1.44884
1131.8,1.44884
1132,1.44883
1132.2,1.44883
1132.4,1.44883
1132.6,1.44883
1132.8,1.44882
1133,1.44882
1133.2,1.44882
1133.4,1.44881
1133.6,1.44881
1133.8,1.44881
1134,1.44881
1134.2,1.4488
1134.4,1.4488
1134.6,1.4488
1134.8,1.4488
1135,1.44879
1135.2,1.44879
1135.4,1.44879
1135.6,1.44878
1135.8,1.44878
1136,1.44878
1136.2,1.44878
1136.4,1.44877
1136.6,1.44877
1136.8,1.44877
1137,1.44877
1137.2,1.44876
1137.4,1.44876
1137.6,1.44876
1137.8,1.44876
1138,1.44875
1138.2,1.44875
1138.4,1.44875
1138.6,1.44874
1138.8,1.44874
1139,1.44874
1139.2,1.44874
1139.4,1.44873
1139.6,1.44873
1139.8,1.44873
1140,1.44873
1140.2,1.44872
1140.4,1.44872
1140.6,1.44872
1140.8,1.44871
1141,1.44871
1141.2,1.44871
1141.4,1.44871
1141.6,1.4487
1141.8,1.4487
1142,1.4487
1142.2,1.4487
1142.4,1.44869
1142.6,1.44869
1142.8,1.44869
1143,1.44868
1143.2,1.44868
1143.4,1.44868
1143.6,1.44868
1143.8,1.44867
1144,1.44867
1144.2,1.44867
1144.4,1.44867
1144.6,1.44866
1144.8,1.44866
1145,1.44866
1145.2,1.44866
1145.4,1.44865
1145.6,1.44865
1145.8,1.44865
1146,1.44864
1146.2,1.44864
1146.4,1.44864
1146.6,1.44864
1146.8,1.44863
1147,1.44863
1147.2,1.44863
1147.4,1.44863
1147.6,1.44862
1147.8,1.44862
1148,1.44862
1148.2,1.44862
1148.4,1.44861
1148.6,1.44861
1148.8,1.44861
1149,1.4486
1149.2,1.4486
1149.4,1.4486
1149.6,1.4486
1149.8,1.44859
1150,1.44859
1150.2,1.44859
1150.4,1.44859
1150.6,1.44858
1150.8,1.44858
1151,1.44858
1151.2,1.44858
1151.4,1.44857
1151.6,1.44857
1151.8,1.44857
1152,1.44856
1152.2,1.44856
1152.4,1.44856
1152.6,1.44856
1152.8,1.44855
1153,1.44855
1153.2,1.44855
1153.4,1.44855
1153.6,1.44854
1153.8,1.44854
1154,1.44854
1154.2,1.44854
1154.4,1.44853
1154.6,1.44853
1154.8,1.44853
1155,1.44853
1155.2,1.44852
1155.4,1.44852
1155.6,1.44852
1155.8,1.44851
1156,1.44851
1156.2,1.44851
1156.4,1.44851
1156.6,1.4485
1156.8,1.4485
1157,1.4485
1157.2,1.4485
1157.4,1.44849
1157.6,1.44849
1157.8,1.44849
1158,1.44849
1158.2,1.44848
1158.4,1.44848
1158.6,1.44848
1158.8,1.44848
1159,1.44847
1159.2,1.44847
1159.4,1.44847
1159.6,1.44846
1159.8,1.44846
1160,1.44846
1160.2,1.44846
1160.4,1.44845
1160.6,1.44845
1160.8,1.44845
1161,1.44845
1161.2,1.44844
1161.4,1.44844
1161.6,1.44844
1161.8,1.44844
1162,1.44843
1162.2,1.44843
1162.4,1.44843
1162.6,1.44843
1162.8,1.44842
1163,1.44842
1163.2,1.44842
1163.4,1.44842
1163.6,1.44841
1163.8,1.44841
1164,1.44841
1164.2,1.4484
1164.4,1.4484
1164.6,1.4484
1164.8,1.4484
1165,1.44839
1165.2,1.44839
1165.4,1.44839
1165.6,1.44839
1165.8,1.44838
1166,1.44838
1166.2,1.44838
1166.4,1.44838
1166.6,1.44837
1166.8,1.44837
1167,1.44837
1167.2,1.44837
1167.4,1.44836
1167.6,1.44836
1167.8,1.44836
1168,1.44836
1168.2,1.44835
1168.4,1.44835
1168.6,1.44835
1168.8,1.44835
1169,1.44834
1169.2,1.44834
1169.4,1.44834
1169.6,1.44834
1169.8,1.44833
1170,1.44833
1170.2,1.44833
1170.4,1.44833
1170.6,1.44832
1170.8,1.44832
1171,1.44832
1171.2,1.44831
1171.4,1.44831
1171.6,1.44831
1171.8,1.44831
1172,1.4483
1172.2,1.4483
1172.4,1.4483
1172.6,1.4483
1172.8,1.44829
1173,1.44829
1173.2,1.44829
1173.4,1.44829
1173.6,1.44828
1173.8,1.44828
1174,1.44828
1174.2,1.44828
1174.4,1.44827
1174.6,1.44827
1174.8,1.44827
1175,1.44827
1175.2,1.44826
1175.4,1.44826
1175.6,1.44826
1175.8,1.44826
1176,1.44825
1176.2,1.44825
1176.4,1.44825
1176.6,1.44825
1176.8,1.44824
1177,1.44824
1177.2,1.44824
1177.4,1.44824
1177.6,1.44823
1177.8,1.44823
1178,1.44823
1178.2,1.44823
1178.4,1.44822
1178.6,1.44822
1178.8,1.44822
1179,1.44822
1179.2,1.44821
1179.4,1.44821
1179.6,1.44821
1179.8,1.44821
1180,1.4482
1180.2,1.4482
1180.4,1.4482
1180.6,1.4482
1180.8,1.44819
1181,1.44819
1181.2,1.44819
1181.4,1.44819
1181.6,1.44818
1181.8,1.44818
1182,1.44818
1182.2,1.44818
1182.4,1.44817
1182.6,1.44817
1182.8,1.44817
1183,1.44817
1183.2,1.44816
1183.4,1.44816
1183.6,1.44816
1183.8,1.44816
1184,1.44815
1184.2,1.44815
1184.4,1.44815
1184.6,1.44815
1184.8,1.44814
1185,1.44814
1185.2,1.44814
1185.4,1.44814
1185.6,1.44813
1185.8,1.44813
1186,1.44813
1186.2,1.44813
1186.4,1.44812
1186.6,1.44812
1186.8,1.44812
1187,1.44812
1187.2,1.44811
1187.4,1.44811
1187.6,1.44811
1187.8,1.44811
1188,1.4481
1188.2,1.4481
1188.4,1.4481
1188.6,1.4481
1188.8,1.44809
1189,1.44809
1189.2,1.44809
1189.4,1.44809
1189.6,1.44808
1189.8,1.44808
1190,1.44808
1190.2,1.44808
1190.4,1.44807
1190.6,1.44807
1190.8,1.44807
1191,1.44807
1191.2,1.44806
1191.4,1.44806
1191.6,1.44806
1191.8,1.44806
1192,1.44805
1192.2,1.44805
1192.4,1.44805
1192.6,1.44805
1192.8,1.44804
1193,1.44804
1193.2,1.44804
1193.4,1.44804
1193.6,1.44803
1193.8,1.44803
1194,1.44803
1194.2,1.44803
1194.4,1.44802
1194.6,1.44802
1194.8,1.44802
1195,1.44802
1195.2,1.44801
1195.4,1.44801
1195.6,1.44801
1195.8,1.44801
1196,1.448
1196.2,1.448
1196.4,1.448
1196.6,1.448
1196.8,1.44799
1197,1.44799
1197.2,1.44799
1197.4,1.44799
1197.6,1.44798
1197.8,1.44798
1198,1.44798
1198.2,1.44798
1198.4,1.44797
1198.6,1.44797
1198.8,1.44797
1199,1.44797
1199.2,1.44796
1199.4,1.44796
1199.6,1.44796
1199.8,1.44796
1200,1.44795
1200.2,1.44795
1200.4,1.44795
1200.6,1.44795
1200.8,1.44794
1201,1.44794
1201.2,1.44794
1201.4,1.44794
1201.6,1.44794
1201.8,1.44793
1202,1.44793
1202.2,1.44793
1202.4,1.44793
1202.6,1.44792
1202.8,1.44792
1203,1.44792
1203.2,1.44792
1203.4,1.44791
1203.6,1.44791
1203.8,1.44791
1204,1.44791
1204.2,1.4479
1204.4,1.4479
1204.6,1.4479
1204.8,1.4479
1205,1.44789
1205.2,1.44789
1205.4,1.44789
1205.6,1.44789
1205.8,1.44788
1206,1.44788
1206.2,1.44788
1206.4,1.44788
1206.6,1.44787
1206.8,1.44787
1207,1.44787
1207.2,1.44787
1207.4,1.44786
1207.6,1.44786
1207.8,1.44786
1208,1.44786
1208.2,1.44786
1208.4,1.44785
1208.6,1.44785
1208.8,1.44785
1209,1.44785
1209.2,1.44784
1209.4,1.44784
1209.6,1.44784
1209.8,1.44784
1210,1.44783
1210.2,1.44783
1210.4,1.44783
1210.6,1.44783
1210.8,1.44782
1211,1.44782
1211.2,1.44782
1211.4,1.44782
1211.6,1.44781
1211.8,1.44781
1212,1.44781
1212.2,1.44781
1212.4,1.4478
1212.6,1.4478
1212.8,1.4478
1213,1.4478
1213.2,1.4478
1213.4,1.44779
1213.6,1.44779
1213.8,1.44779
1214,1.44779
1214.2,1.44778
1214.4,1.44778
1214.6,1.44778
1214.8,1.44778
1215,1.44777
1215.2,1.44777
1215.4,1.44777
1215.6,1.44777
1215.8,1.44776
1216,1.44776
1216.2,1.44776
1216.4,1.44776
1216.6,1.44775
1216.8,1.44775
1217,1.44775
1217.2,1.44775
1217.4,1.44775
1217.6,1.44774
1217.8,1.44774
1218,1.44774
1218.2,1.44774
1218.4,1.44773
1218.6,1.44773
1218.8,1.44773
1219,1.44773
1219.2,1.44772
1219.4,1.44772
1219.6,1.44772
1219.8,1.44772
1220,1.44771
1220.2,1.44771
1220.4,1.44771
1220.6,1.44771
1220.8,1.44771
1221,1.4477
1221.2,1.4477
1221.4,1.4477
1221.6,1.4477
1221.8,1.44769
1222,1.44769
1222.2,1.44769
1222.4,1.44769
1222.6,1.44768
1222.8,1.44768
1223,1.44768
1223.2,1.44768
1223.4,1.44767
1223.6,1.44767
1223.8,1.44767
1224,1.44767
1224.2,1.44767
1224.4,1.44766
1224.6,1.44766
1224.8,1.44766
1225,1.44766
1225.2,1.44765
1225.4,1.44765
1225.6,1.44765
1225.8,1.44765
1226,1.44764
1226.2,1.44764
1226.4,1.44764
1226.6,1.44764
1226.8,1.44763
1227,1.44763
1227.2,1.44763
1227.4,1.44763
1227.6,1.44763
1227.8,1.44762
1228,1.44762
1228.2,1.44762
1228.4,1.44762
1228.6,1.44761
1228.8,1.44761
1229,1.44761
1229.2,1.44761
1229.4,1.4476
1229.6,1.4476
1229.8,1.4476
1230,1.4476
1230.2,1.4476
1230.4,1.44759
1230.6,1.44759
1230.8,1.44759
1231,1.44759
1231.2,1.44758
1231.4,1.44758
1231.6,1.44758
1231.8,1.44758
1232,1.44757
1232.2,1.44757
1232.4,1.44757
1232.6,1.44757
1232.8,1.44757
1233,1.44756
1233.2,1.44756
1233.4,1.44756
1233.6,1.44756
1233.8,1.44755
1234,1.44755
1234.2,1.44755
1234.4,1.44755
1234.6,1.44754
1234.8,1.44754
1235,1.44754
1235.2,1.44754
1235.4,1.44754
1235.6,1.44753
1235.8,1.44753
1236,1.44753
1236.2,1.44753
1236.4,1.44752
1236.6,1.44752
1236.8,1.44752
1237,1.44752
1237.2,1.44751
1237.4,1.44751
1237.6,1.44751
1237.8,1.44751
1238,1.44751
1238.2,1.4475
1238.4,1.4475
1238.6,1.4475
1238.8,1.4475
1239,1.44749
1239.2,1.44749
1239.4,1.44749
1239.6,1.44749
1239.8,1.44748
1240,1.44748
1240.2,1.44748
1240.4,1.44748
1240.6,1.44748
1240.8,1.44747
1241,1.44747
1241.2,1.44747
1241.4,1.44747
1241.6,1.44746
1241.8,1.44746
1242,1.44746
1242.2,1.44746
1242.4,1.44745
1242.6,1.44745
1242.8,1.44745
1243,1.44745
1243.2,1.44745
1243.4,1.44744
1243.6,1.44744
1243.8,1.44744
1244,1.44744
1244.2,1.44743
1244.4,1.44743
1244.6,1.44743
1244.8,1.44743
1245,1.44743
1245.2,1.44742
1245.4,1.44742
1245.6,1.44742
1245.8,1.44742
1246,1.44741
1246.2,1.44741
1246.4,1.44741
1246.6,1.44741
1246.8,1.4474
1247,1.4474
1247.2,1.4474
1247.4,1.4474
1247.6,1.4474
1247.8,1.44739
1248,1.44739
1248.2,1.44739
1248.4,1.44739
1248.6,1.44738
1248.8,1.44738
1249,1.44738
1249.2,1.44738
1249.4,1.44738
1249.6,1.44737
1249.8,1.44737
1250,1.44737
1250.2,1.44737
1250.4,1.44736
1250.6,1.44736
1250.8,1.44736
1251,1.44736
1251.2,1.44736
1251.4,1.44735
1251.6,1.44735
1251.8,1.44735
1252,1.44735
1252.2,1.44734
1252.4,1.44734
1252.6,1.44734
1252.8,1.44734
1253,1.44734
1253.2,1.44733
1253.4,1.44733
1253.6,1.44733
1253.8,1.44733
1254,1.44732
1254.2,1.44732
1254.4,1.44732
1254.6,1.44732
1254.8,1.44732
1255,1.44731
1255.2,1.44731
1255.4,1.44731
1255.6,1.44731
1255.8,1.4473
1256,1.4473
1256.2,1.4473
1256.4,1.4473
1256.6,1.44729
1256.8,1.44729
1257,1.44729
1257.2,1.44729
1257.4,1.44729
1257.6,1.44728
1257.8,1.44728
1258,1.44728
1258.2,1.44728
1258.4,1.44727
1258.6,1.44727
1258.8,1.44727
1259,1.44727
1259.2,1.44727
1259.4,1.44726
1259.6,1.44726
1259.8,1.44726
1260,1.44726
1260.2,1.44726
1260.4,1.44725
1260.6,1.44725
1260.8,1.44725
1261,1.44725
1261.2,1.44724
1261.4,1.44724
1261.6,1.44724
1261.8,1.44724
1262,1.44724
1262.2,1.44723
1262.4,1.44723
1262.6,1.44723
1262.8,1.44723
1263,1.44722
1263.2,1.44722
1263.4,1.44722
1263.6,1.44722
1263.8,1.44722
1264,1.44721
1264.2,1.44721
1264.4,1.44721
1264.6,1.44721
1264.8,1.4472
1265,1.4472
1265.2,1.4472
1265.4,1.4472
1265.6,1.4472
1265.8,1.44719
1266,1.44719
1266.2,1.44719
1266.4,1.44719
1266.6,1.44718
1266.8,1.44718
1267,1.44718
1267.2,1.44718
1267.4,1.44718
1267.6,1.44717
1267.8,1.44717
1268,1.44717
1268.2,1.44717
1268.4,1.44716
1268.6,1.44716
1268.8,1.44716
1269,1.44716
1269.2,1.44716
1269.4,1.44715
1269.6,1.44715
1269.8,1.44715
1270,1.44715
1270.2,1.44715
1270.4,1.44714
1270.6,1.44714
1270.8,1.44714
1271,1.44714
1271.2,1.44713
1271.4,1.44713
1271.6,1.44713
1271.8,1.44713
1272,1.44713
1272.2,1.44712
1272.4,1.44712
1272.6,1.44712
1272.8,1.44712
1273,1.44711
1273.2,1.44711
1273.4,1.44711
1273.6,1.44711
1273.8,1.44711
1274,1.4471
1274.2,1.4471
1274.4,1.4471
1274.6,1.4471
1274.8,1.4471
1275,1.44709
1275.2,1.44709
1275.4,1.44709
1275.6,1.44709
1275.8,1.44708
1276,1.44708
1276.2,1.44708
1276.4,1.44708
1276.6,1.44708
1276.8,1.44707
1277,1.44707
1277.2,1.44707
1277.4,1.44707
1277.6,1.44706
1277.8,1.44706
1278,1.44706
1278.2,1.44706
1278.4,1.44706
1278.6,1.44705
1278.8,1.44705
1279,1.44705
1279.2,1.44705
1279.4,1.44705
1279.6,1.44704
1279.8,1.44704
1280,1.44704
1280.2,1.44704
1280.4,1.44703
1280.6,1.44703
1280.8,1.44703
1281,1.44703
1281.2,1.44703
1281.4,1.44702
1281.6,1.44702
1281.8,1.44702
1282,1.44702
1282.2,1.44702
1282.4,1.44701
1282.6,1.44701
1282.8,1.44701
1283,1.44701
1283.2,1.447
1283.4,1.447
1283.6,1.447
1283.8,1.447
1284,1.447
1284.2,1.44699
1284.4,1.44699
1284.6,1.44699
1284.8,1.44699
1285,1.44699
1285.2,1.44698
1285.4,1.44698
1285.6,1.44698
1285.8,1.44698
1286,1.44698
1286.2,1.44697
1286.4,1.44697
1286.6,1.44697
1286.8,1.44697
1287,1.44696
1287.2,1.44696
1287.4,1.44696
1287.6,1.44696
1287.8,1.44696
1288,1.44695
1288.2,1.44695
1288.4,1.44695
1288.6,1.44695
1288.8,1.44695
1289,1.44694
1289.2,1.44694
1289.4,1.44694
1289.6,1.44694
1289.8,1.44693
1290,1.44693
1290.2,1.44693
1290.4,1.44693
1290.6,1.44693
1290.8,1.44692
1291,1.44692
1291.2,1.44692
1291.4,1.44692
1291.6,1.44692
1291.8,1.44691
1292,1.44691
1292.2,1.44691
1292.4,1.44691
1292.6,1.44691
1292.8,1.4469
1293,1.4469
1293.2,1.4469
1293.4,1.4469
1293.6,1.44689
1293.8,1.44689
1294,1.44689
1294.2,1.44689
1294.4,1.44689
1294.6,1.44688
1294.8,1.44688
1295,1.44688
1295.2,1.44688
1295.4,1.44688
1295.6,1.44687
1295.8,1.44687
1296,1.44687
1296.2,1.44687
1296.4,1.44687
1296.6,1.44686
1296.8,1.44686
1297,1.44686
1297.2,1.44686
1297.4,1.44685
1297.6,1.44685
1297.8,1.44685
1298,1.44685
1298.2,1.44685
1298.4,1.44684
1298.6,1.44684
1298.8,1.44684
1299,1.44684
1299.2,1.44684
1299.4,1.44683
1299.6,1.44683
1299.8,1.44683
1300,1.44683
1300.2,1.44683
1300.4,1.44682
1300.6,1.44682
1300.8,1.44682
1301,1.44682
1301.2,1.44682
1301.4,1.44681
1301.6,1.44681
1301.8,1.44681
1302,1.44681
1302.2,1.4468
1302.4,1.4468
1302.6,1.4468
1302.8,1.4468
1303,1.4468
1303.2,1.44679
1303.4,1.44679
1303.6,1.44679
1303.8,1.44679
1304,1.44679
1304.2,1.44678
1304.4,1.44678
1304.6,1.44678
1304.8,1.44678
1305,1.44678
1305.2,1.44677
1305.4,1.44677
1305.6,1.44677
1305.8,1.44677
1306,1.44677
1306.2,1.44676
1306.4,1.44676
1306.6,1.44676
1306.8,1.44676
1307,1.44676
1307.2,1.44675
1307.4,1.44675
1307.6,1.44675
1307.8,1.44675
1308,1.44675
1308.2,1.44674
1308.4,1.44674
1308.6,1.44674
1308.8,1.44674
1309,1.44673
1309.2,1.44673
1309.4,1.44673
1309.6,1.44673
1309.8,1.44673
1310,1.44672
1310.2,1.44672
1310.4,1.44672
1310.6,1.44672
1310.8,1.44672
1311,1.44671
1311.2,1.44671
1311.4,1.44671
1311.6,1.44671
1311.8,1.44671
1312,1.4467
1312.2,1.4467
1312.4,1.4467
1312.6,1.4467
1312.8,1.4467
1313,1.44669
1313.2,1.44669
1313.4,1.44669
1313.6,1.44669
1313.8,1.44669
1314,1.44668
1314.2,1.44668
1314.4,1.44668
1314.6,1.44668
1314.8,1.44668
1315,1.44667
1315.2,1.44667
1315.4,1.44667
1315.6,1.44667
1315.8,1.44667
1316,1.44666
1316.2,1.44666
1316.4,1.44666
1316.6,1.44666
1316.8,1.44666
1317,1.44665
1317.2,1.44665
1317.4,1.44665
1317.6,1.44665
1317.8,1.44665
1318,1.44664
1318.2,1.44664
1318.4,1.44664
1318.6,1.44664
1318.8,1.44663
1319,1.44663
1319.2,1.44663
1319.4,1.44663
1319.6,1.44663
1319.8,1.44662
1320,1.44662
1320.2,1.44662
1320.4,1.44662
1320.6,1.44662
1320.8,1.44661
1321,1.44661
1321.2,1.44661
1321.4,1.44661
1321.6,1.44661
1321.8,1.4466
1322,1.4466
1322.2,1.4466
1322.4,1.4466
1322.6,1.4466
1322.8,1.44659
1323,1.44659
1323.2,1.44659
1323.4,1.44659
1323.6,1.44659
1323.8,1.44658
1324,1.44658
1324.2,1.44658
1324.4,1.44658
1324.6,1.44658
1324.8,1.44657
1325,1.44657
1325.2,1.44657
1325.4,1.44657
1325.6,1.44657
1325.8,1.44656
1326,1.44656
1326.2,1.44656
1326.4,1.44656
1326.6,1.44656
1326.8,1.44655
1327,1.44655
1327.2,1.44655
1327.4,1.44655
1327.6,1.44655
1327.8,1.44654
1328,1.44654
1328.2,1.44654
1328.4,1.44654
1328.6,1.44654
1328.8,1.44653
1329,1.44653
1329.2,1.44653
1329.4,1.44653
1329.6,1.44653
1329.8,1.44652
1330,1.44652
1330.2,1.44652
1330.4,1.44652
1330.6,1.44652
1330.8,1.44651
1331,1.44651
1331.2,1.44651
1331.4,1.44651
1331.6,1.44651
1331.8,1.4465
1332,1.4465
1332.2,1.4465
1332.4,1.4465
1332.6,1.4465
1332.8,1.44649
1333,1.44649
1333.2,1.44649
1333.4,1.44649
1333.6,1.44649
1333.8,1.44648
1334,1.44648
1334.2,1.44648
1334.4,1.44648
1334.6,1.44648
1334.8,1.44648
1335,1.44647
1335.2,1.44647
1335.4,1.44647
1335.6,1.44647
1335.8,1.44647
1336,1.44646
1336.2,1.44646
1336.4,1.44646
1336.6,1.44646
1336.8,1.44646
1337,1.44645
1337.2,1.44645
1337.4,1.44645
1337.6,1.44645
1337.8,1.44645
1338,1.44644
1338.2,1.44644
1338.4,1.44644
1338.6,1.44644
1338.8,1.44644
1339,1.44643
1339.2,1.44643
1339.4,1.44643
1339.6,1.44643
1339.8,1.44643
1340,1.44642
1340.2,1.44642
1340.4,1.44642
1340.6,1.44642
1340.8,1.44642
1341,1.44641
1341.2,1.44641
1341.4,1.44641
1341.6,1.44641
1341.8,1.44641
1342,1.4464
1342.2,1.4464
1342.4,1.4464
1342.6,1.4464
1342.8,1.4464
1343,1.44639
1343.2,1.44639
1343.4,1.44639
1343.6,1.44639
1343.8,1.44639
1344,1.44638
1344.2,1.44638
1344.4,1.44638
1344.6,1.44638
1344.8,1.44638
1345,1.44638
1345.2,1.44637
1345.4,1.44637
1345.6,1.44637
1345.8,1.44637
1346,1.44637
1346.2,1.44636
1346.4,1.44636
1346.6,1.44636
1346.8,1.44636
1347,1.44636
1347.2,1.44635
1347.4,1.44635
1347.6,1.44635
1347.8,1.44635
1348,1.44635
1348.2,1.44634
1348.4,1.44634
1348.6,1.44634
1348.8,1.44634
1349,1.44634
1349.2,1.44633
1349.4,1.44633
1349.6,1.44633
1349.8,1.44633
1350,1.44633
1350.2,1.44632
1350.4,1.44632
1350.6,1.44632
1350.8,1.44632
1351,1.44632
1351.2,1.44632
1351.4,1.44631
1351.6,1.44631
1351.8,1.44631
1352,1.44631
1352.2,1.44631
1352.4,1.4463
1352.6,1.4463
1352.8,1.4463
1353,1.4463
1353.2,1.4463
1353.4,1.44629
1353.6,1.44629
1353.8,1.44629
1354,1.44629
1354.2,1.44629
1354.4,1.44628
1354.6,1.44628
1354.8,1.44628
1355,1.44628
1355.2,1.44628
1355.4,1.44627
1355.6,1.44627
1355.8,1.44627
1356,1.44627
1356.2,1.44627
1356.4,1.44627
1356.6,1.44626
1356.8,1.44626
1357,1.44626
1357.2,1.44626
1357.4,1.44626
1357.6,1.44625
1357.8,1.44625
1358,1.44625
1358.2,1.44625
1358.4,1.44625
1358.6,1.44624
1358.8,1.44624
1359,1.44624
1359.2,1.44624
1359.4,1.44624
1359.6,1.44623
1359.8,1.44623
1360,1.44623
1360.2,1.44623
1360.4,1.44623
1360.6,1.44623
1360.8,1.44622
1361,1.44622
1361.2,1.44622
1361.4,1.44622
1361.6,1.44622
1361.8,1.44621
1362,1.44621
1362.2,1.44621
1362.4,1.44621
1362.6,1.44621
1362.8,1.4462
1363,1.4462
1363.2,1.4462
1363.4,1.4462
1363.6,1.44619
1363.8,1.44619
1364,1.44619
1364.2,1.44619
1364.4,1.44618
1364.6,1.44618
1364.8,1.44618
1365,1.44618
1365.2,1.44618
1365.4,1.44617
1365.6,1.44617
1365.8,1.44617
1366,1.44617
1366.2,1.44616
1366.4,1.44616
1366.6,1.44616
1366.8,1.44616
1367,1.44615
1367.2,1.44615
1367.4,1.44615
1367.6,1.44615
1367.8,1.44615
1368,1.44614
1368.2,1.44614
1368.4,1.44614
1368.6,1.44614
1368.8,1.44613
1369,1.44613
1369.2,1.44613
1369.4,1.44613
1369.6,1.44613
1369.8,1.44612
1370,1.44612
1370.2,1.44612
1370.4,1.44612
1370.6,1.44611
1370.8,1.44611
1371,1.44611
1371.2,1.44611
1371.4,1.4461
1371.6,1.4461
1371.8,1.4461
1372,1.4461
1372.2,1.4461
1372.4,1.44609
1372.6,1.44609
1372.8,1.44609
1373,1.44609
1373.2,1.44608
1373.4,1.44608
1373.6,1.44608
1373.8,1.44608
1374,1.44608
1374.2,1.44607
1374.4,1.44607
1374.6,1.44607
1374.8,1.44607
1375,1.44606
1375.2,1.44606
1375.4,1.44606
1375.6,1.44606
1375.8,1.44605
1376,1.44605
1376.2,1.44605
1376.4,1.44605
1376.6,1.44605
1376.8,1.44604
1377,1.44604
1377.2,1.44604
1377.4,1.44604
1377.6,1.44603
1377.8,1.44603
1378,1.44603
1378.2,1.44603
1378.4,1.44603
1378.6,1.44602
1378.8,1.44602
1379,1.44602
1379.2,1.44602
1379.4,1.44601
1379.6,1.44601
1379.8,1.44601
1380,1.44601
1380.2,1.44601
1380.4,1.446
1380.6,1.446
1380.8,1.446
1381,1.446
1381.2,1.44599
1381.4,1.44599
1381.6,1.44599
1381.8,1.44599
1382,1.44598
1382.2,1.44598
1382.4,1.44598
1382.6,1.44598
1382.8,1.44598
1383,1.44597
1383.2,1.44597
1383.4,1.44597
1383.6,1.44597
1383.8,1.44596
1384,1.44596
1384.2,1.44596
1384.4,1.44596
1384.6,1.44596
1384.8,1.44595
1385,1.44595
1385.2,1.44595
1385.4,1.44595
1385.6,1.44594
1385.8,1.44594
1386,1.44594
1386.2,1.44594
1386.4,1.44594
1386.6,1.44593
1386.8,1.44593
1387,1.44593
1387.2,1.44593
1387.4,1.44592
1387.6,1.44592
1387.8,1.44592
1388,1.44592
1388.2,1.44592
1388.4,1.44591
1388.6,1.44591
1388.8,1.44591
1389,1.44591
1389.2,1.4459
1389.4,1.4459
1389.6,1.4459
1389.8,1.4459
1390,1.4459
1390.2,1.44589
1390.4,1.44589
1390.6,1.44589
1390.8,1.44589
1391,1.44588
1391.2,1.44588
1391.4,1.44588
1391.6,1.44588
1391.8,1.44588
1392,1.44587
1392.2,1.44587
1392.4,1.44587
1392.6,1.44587
1392.8,1.44586
1393,1.44586
1393.2,1.44586
1393.4,1.44586
1393.6,1.44586
1393.8,1.44585
1394,1.44585
1394.2,1.44585
1394.4,1.44585
1394.6,1.44585
1394.8,1.44584
1395,1.44584
1395.2,1.44584
1395.4,1.44584
1395.6,1.44583
1395.8,1.44583
1396,1.44583
1396.2,1.44583
1396.4,1.44582
1396.6,1.44582
1396.8,1.44582
1397,1.44582
1397.2,1.44581
1397.4,1.44581
1397.6,1.44581
1397.8,1.44581
1398,1.4458
1398.2,1.4458
1398.4,1.4458
1398.6,1.4458
1398.8,1.44579
1399,1.44579
1399.2,1.44579
1399.4,1.44579
1399.6,1.44578
1399.8,1.44578
1400,1.44578
1400.2,1.44578
1400.4,1.44577
1400.6,1.44577
1400.8,1.44577
1401,1.44577
1401.2,1.44576
1401.4,1.44576
1401.6,1.44576
1401.8,1.44576
1402,1.44576
1402.2,1.44575
1402.4,1.44575
1402.6,1.44575
1402.8,1.44575
1403,1.44574
1403.2,1.44574
1403.4,1.44574
1403.6,1.44574
1403.8,1.44573
1404,1.44573
1404.2,1.44573
1404.4,1.44573
1404.6,1.44572
1404.8,1.44572
1405,1.44572
1405.2,1.44572
1405.4,1.44571
1405.6,1.44571
1405.8,1.44571
1406,1.44571
1406.2,1.4457
1406.4,1.4457
1406.6,1.4457
1406.8,1.4457
1407,1.44569
1407.2,1.44569
1407.4,1.44569
1407.6,1.44569
1407.8,1.44568
1408,1.44568
1408.2,1.44568
1408.4,1.44568
1408.6,1.44567
1408.8,1.44567
1409,1.44567
1409.2,1.44567
1409.4,1.44567
1409.6,1.44566
1409.8,1.44566
1410,1.44566
1410.2,1.44566
1410.4,1.44565
1410.6,1.44565
1410.8,1.44565
1411,1.44565
1411.2,1.44564
1411.4,1.44564
1411.6,1.44564
1411.8,1.44564
1412,1.44563
1412.2,1.44563
1412.4,1.44563
1412.6,1.44563
1412.8,1.44562
1413,1.44562
1413.2,1.44562
1413.4,1.44562
1413.6,1.44561
1413.8,1.44561
1414,1.44561
1414.2,1.44561
1414.4,1.44561
1414.6,1.4456
1414.8,1.4456
1415,1.4456
1415.2,1.4456
1415.4,1.44559
1415.6,1.44559
1415.8,1.44559
1416,1.44559
1416.2,1.44558
1416.4,1.44558
1416.6,1.44558
1416.8,1.44558
1417,1.44557
1417.2,1.44557
1417.4,1.44557
1417.6,1.44557
1417.8,1.44556
1418,1.44556
1418.2,1.44556
1418.4,1.44556
1418.6,1.44556
1418.8,1.44555
1419,1.44555
1419.2,1.44555
1419.4,1.44555
1419.6,1.44554
1419.8,1.44554
1420,1.44554
1420.2,1.44554
1420.4,1.44553
1420.6,1.44553
1420.8,1.44553
1421,1.44553
1421.2,1.44552
1421.4,1.44552
1421.6,1.44552
1421.8,1.44552
1422,1.44551
1422.2,1.44551
1422.4,1.44551
1422.6,1.44551
1422.8,1.44551
1423,1.4455
1423.2,1.4455
1423.4,1.4455
1423.6,1.4455
1423.8,1.44549
1424,1.44549
1424.2,1.44549
1424.4,1.44549
1424.6,1.44548
1424.8,1.44548
1425,1.44548
1425.2,1.44548
1425.4,1.44547
1425.6,1.44547
1425.8,1.44547
1426,1.44547
1426.2,1.44547
1426.4,1.44546
1426.6,1.44546
1426.8,1.44546
1427,1.44546
1427.2,1.44545
1427.4,1.44545
1427.6,1.44545
1427.8,1.44545
1428,1.44544
1428.2,1.44544
1428.4,1.44544
1428.6,1.44544
1428.8,1.44543
1429,1.44543
1429.2,1.44543
1429.4,1.44543
1429.6,1.44543
1429.8,1.44542
1430,1.44542
1430.2,1.44542
1430.4,1.44542
1430.6,1.44541
1430.8,1.44541
1431,1.44541
1431.2,1.44541
1431.4,1.4454
1431.6,1.4454
1431.8,1.4454
1432,1.4454
1432.2,1.44539
1432.4,1.44539
1432.6,1.44539
1432.8,1.44539
1433,1.44539
1433.2,1.44538
1433.4,1.44538
1433.6,1.44538
1433.8,1.44538
1434,1.44537
1434.2,1.44537
1434.4,1.44537
1434.6,1.44537
1434.8,1.44536
1435,1.44536
1435.2,1.44536
1435.4,1.44536
1435.6,1.44536
1435.8,1.44535
1436,1.44535
1436.2,1.44535
1436.4,1.44535
1436.6,1.44534
1436.8,1.44534
1437,1.44534
1437.2,1.44534
1437.4,1.44533
1437.6,1.44533
1437.8,1.44533
1438,1.44533
1438.2,1.44532
1438.4,1.44532
1438.6,1.44532
1438.8,1.44532
1439,1.44532
1439.2,1.44531
1439.4,1.44531
1439.6,1.44531
1439.8,1.44531
1440,1.4453
1440.2,1.4453
1440.4,1.4453
1440.6,1.4453
1440.8,1.44529
1441,1.44529
1441.2,1.44529
1441.4,1.44529
1441.6,1.44529
1441.8,1.44528
1442,1.44528
1442.2,1.44528
1442.4,1.44528
1442.6,1.44527
1442.8,1.44527
1443,1.44527
1443.2,1.44527
1443.4,1.44526
1443.6,1.44526
1443.8,1.44526
1444,1.44526
1444.2,1.44526
1444.4,1.44525
1444.6,1.44525
1444.8,1.44525
1445,1.44525
1445.2,1.44524
1445.4,1.44524
1445.6,1.44524
1445.8,1.44524
1446,1.44524
1446.2,1.44523
1446.4,1.44523
1446.6,1.44523
1446.8,1.44523
1447,1.44522
1447.2,1.44522
1447.4,1.44522
1447.6,1.44522
1447.8,1.44521
1448,1.44521
1448.2,1.44521
1448.4,1.44521
1448.6,1.44521
1448.8,1.4452
1449,1.4452
1449.2,1.4452
1449.4,1.4452
1449.6,1.44519
1449.8,1.44519
1450,1.44519
1450.2,1.44519
1450.4,1.44518
1450.6,1.44518
1450.8,1.44518
1451,1.44518
1451.2,1.44518
1451.4,1.44517
1451.6,1.44517
1451.8,1.44517
1452,1.44517
1452.2,1.44516
1452.4,1.44516
1452.6,1.44516
1452.8,1.44516
1453,1.44516
1453.2,1.44515
1453.4,1.44515
1453.6,1.44515
1453.8,1.44515
1454,1.44514
1454.2,1.44514
1454.4,1.44514
1454.6,1.44514
1454.8,1.44513
1455,1.44513
1455.2,1.44513
1455.4,1.44513
1455.6,1.44513
1455.8,1.44512
1456,1.44512
1456.2,1.44512
1456.4,1.44512
1456.6,1.44511
1456.8,1.44511
1457,1.44511
1457.2,1.44511
1457.4,1.44511
1457.6,1.4451
1457.8,1.4451
1458,1.4451
1458.2,1.4451
1458.4,1.44509
1458.6,1.44509
1458.8,1.44509
1459,1.44509
1459.2,1.44509
1459.4,1.44508
1459.6,1.44508
1459.8,1.44508
1460,1.44508
1460.2,1.44507
1460.4,1.44507
1460.6,1.44507
1460.8,1.44507
1461,1.44506
1461.2,1.44506
1461.4,1.44506
1461.6,1.44506
1461.8,1.44506
1462,1.44505
1462.2,1.44505
1462.4,1.44505
1462.6,1.44505
1462.8,1.44504
1463,1.44504
1463.2,1.44504
1463.4,1.44504
1463.6,1.44504
1463.8,1.44503
1464,1.44503
1464.2,1.44503
1464.4,1.44503
1464.6,1.44502
1464.8,1.44502
1465,1.44502
1465.2,1.44502
1465.4,1.44502
1465.6,1.44501
1465.8,1.44501
1466,1.44501
1466.2,1.44501
1466.4,1.445
1466.6,1.445
1466.8,1.445
1467,1.445
1467.2,1.445
1467.4,1.44499
1467.6,1.44499
1467.8,1.44499
1468,1.44499
1468.2,1.44498
1468.4,1.44498
1468.6,1.44498
1468.8,1.44498
1469,1.44498
1469.2,1.44497
1469.4,1.44497
1469.6,1.44497
1469.8,1.44497
1470,1.44496
1470.2,1.44496
1470.4,1.44496
1470.6,1.44496
1470.8,1.44495
1471,1.44495
1471.2,1.44495
1471.4,1.44495
1471.6,1.44494
1471.8,1.44494
1472,1.44494
1472.2,1.44494
1472.4,1.44493
1472.6,1.44493
1472.8,1.44493
1473,1.44493
1473.2,1.44493
1473.4,1.44492
1473.6,1.44492
1473.8,1.44492
1474,1.44492
1474.2,1.44491
1474.4,1.44491
1474.6,1.44491
1474.8,1.44491
1475,1.4449
1475.2,1.4449
1475.4,1.4449
1475.6,1.4449
1475.8,1.44489
1476,1.44489
1476.2,1.44489
1476.4,1.44489
1476.6,1.44488
1476.8,1.44488
1477,1.44488
1477.2,1.44488
1477.4,1.44487
1477.6,1.44487
1477.8,1.44487
1478,1.44487
1478.2,1.44487
1478.4,1.44486
1478.6,1.44486
1478.8,1.44486
1479,1.44486
1479.2,1.44485
1479.4,1.44485
1479.6,1.44485
1479.8,1.44485
1480,1.44484
1480.2,1.44484
1480.4,1.44484
1480.6,1.44484
1480.8,1.44483
1481,1.44483
1481.2,1.44483
1481.4,1.44483
1481.6,1.44482
1481.8,1.44482
1482,1.44482
1482.2,1.44482
1482.4,1.44481
1482.6,1.44481
1482.8,1.44481
1483,1.44481
1483.2,1.44481
1483.4,1.4448
1483.6,1.4448
1483.8,1.4448
1484,1.4448
1484.2,1.44479
1484.4,1.44479
1484.6,1.44479
1484.8,1.44479
1485,1.44478
1485.2,1.44478
1485.4,1.44478
1485.6,1.44478
1485.8,1.44477
1486,1.44477
1486.2,1.44477
1486.4,1.44477
1486.6,1.44476
1486.8,1.44476
1487,1.44476
1487.2,1.44476
1487.4,1.44476
1487.6,1.44475
1487.8,1.44475
1488,1.44475
1488.2,1.44475
1488.4,1.44474
1488.6,1.44474
1488.8,1.44474
1489,1.44474
1489.2,1.44473
1489.4,1.44473
1489.6,1.44473
1489.8,1.44473
1490,1.44472
1490.2,1.44472
1490.4,1.44472
1490.6,1.44472
1490.8,1.44472
1491,1.44471
1491.2,1.44471
1491.4,1.44471
1491.6,1.44471
1491.8,1.4447
1492,1.4447
1492.2,1.4447
1492.4,1.4447
1492.6,1.44469
1492.8,1.44469
1493,1.44469
1493.2,1.44469
1493.4,1.44468
1493.6,1.44468
1493.8,1.44468
1494,1.44468
1494.2,1.44468
1494.4,1.44467
1494.6,1.44467
1494.8,1.44467
1495,1.44467
1495.2,1.44466
1495.4,1.44466
1495.6,1.44466
1495.8,1.44466
1496,1.44465
1496.2,1.44465
1496.4,1.44465
1496.6,1.44465
1496.8,1.44464
1497,1.44464
1497.2,1.44464
1497.4,1.44464
1497.6,1.44464
1497.8,1.44463
1498,1.44463
1498.2,1.44463
1498.4,1.44463
1498.6,1.44462
1498.8,1.44462
1499,1.44462
1499.2,1.44462
1499.4,1.44461
1499.6,1.44461
1499.8,1.44461
1500,1.44461
1500.2,1.4446
1500.4,1.4446
1500.6,1.4446
1500.8,1.4446
1501,1.4446
1501.2,1.44459
1501.4,1.44459
1501.6,1.44459
1501.8,1.44459
1502,1.44458
1502.2,1.44458
1502.4,1.44458
1502.6,1.44458
1502.8,1.44457
1503,1.44457
1503.2,1.44457
1503.4,1.44457
1503.6,1.44457
1503.8,1.44456
1504,1.44456
1504.2,1.44456
1504.4,1.44456
1504.6,1.44455
1504.8,1.44455
1505,1.44455
1505.2,1.44455
1505.4,1.44454
1505.6,1.44454
1505.8,1.44454
1506,1.44454
1506.2,1.44454
1506.4,1.44453
1506.6,1.44453
1506.8,1.44453
1507,1.44453
1507.2,1.44452
1507.4,1.44452
1507.6,1.44452
1507.8,1.44452
1508,1.44451
1508.2,1.44451
1508.4,1.44451
1508.6,1.44451
1508.8,1.44451
1509,1.4445
1509.2,1.4445
1509.4,1.4445
1509.6,1.4445
1509.8,1.44449
1510,1.44449
1510.2,1.44449
1510.4,1.44449
1510.6,1.44448
1510.8,1.44448
1511,1.44448
1511.2,1.44448
1511.4,1.44448
1511.6,1.44447
1511.8,1.44447
1512,1.44447
1512.2,1.44447
1512.4,1.44446
1512.6,1.44446
1512.8,1.44446
1513,1.44446
1513.2,1.44445
1513.4,1.44445
1513.6,1.44445
1513.8,1.44445
1514,1.44445
1514.2,1.44444
1514.4,1.44444
1514.6,1.44444
1514.8,1.44444
1515,1.44443
1515.2,1.44443
1515.4,1.44443
1515.6,1.44443
1515.8,1.44443
1516,1.44442
1516.2,1.44442
1516.4,1.44442
1516.6,1.44442
1516.8,1.44441
1517,1.44441
1517.2,1.44441
1517.4,1.44441
1517.6,1.4444
1517.8,1.4444
1518,1.4444
1518.2,1.4444
1518.4,1.4444
1518.6,1.44439
1518.8,1.44439
1519,1.44439
1519.2,1.44439
1519.4,1.44438
1519.6,1.44438
1519.8,1.44438
1520,1.44438
1520.2,1.44438
1520.4,1.44437
1520.6,1.44437
1520.8,1.44437
1521,1.44437
1521.2,1.44436
1521.4,1.44436
1521.6,1.44436
1521.8,1.44436
1522,1.44435
1522.2,1.44435
1522.4,1.44435
1522.6,1.44435
1522.8,1.44435
1523,1.44434
1523.2,1.44434
1523.4,1.44434
1523.6,1.44434
1523.8,1.44433
1524,1.44433
1524.2,1.44433
1524.4,1.44433
1524.6,1.44433
1524.8,1.44432
1525,1.44432
1525.2,1.44432
1525.4,1.44432
1525.6,1.44431
1525.8,1.44431
1526,1.44431
1526.2,1.44431
1526.4,1.44431
1526.6,1.4443
1526.8,1.4443
1527,1.4443
1527.2,1.4443
1527.4,1.44429
1527.6,1.44429
1527.8,1.44429
1528,1.44429
1528.2,1.44428
1528.4,1.44428
1528.6,1.44428
1528.8,1.44428
1529,1.44428
1529.2,1.44427
1529.4,1.44427
1529.6,1.44427
1529.8,1.44427
1530,1.44426
1530.2,1.44426
1530.4,1.44426
1530.6,1.44426
1530.8,1.44425
1531,1.44425
1531.2,1.44425
1531.4,1.44425
1531.6,1.44424
1531.8,1.44424
1532,1.44424
1532.2,1.44423
1532.4,1.44423
1532.6,1.44423
1532.8,1.44423
1533,1.44422
1533.2,1.44422
1533.4,1.44422
1533.6,1.44422
1533.8,1.44421
1534,1.44421
1534.2,1.44421
1534.4,1.44421
1534.6,1.4442
1534.8,1.4442
1535,1.4442
1535.2,1.4442
1535.4,1.44419
1535.6,1.44419
1535.8,1.44419
1536,1.44418
1536.2,1.44418
1536.4,1.44418
1536.6,1.44418
1536.8,1.44417
1537,1.44417
1537.2,1.44417
1537.4,1.44417
1537.6,1.44416
1537.8,1.44416
1538,1.44416
1538.2,1.44416
1538.4,1.44415
1538.6,1.44415
1538.8,1.44415
1539,1.44415
1539.2,1.44414
1539.4,1.44414
1539.6,1.44414
1539.8,1.44413
1540,1.44413
1540.2,1.44413
1540.4,1.44413
1540.6,1.44412
1540.8,1.44412
1541,1.44412
1541.2,1.44412
1541.4,1.44411
1541.6,1.44411
1541.8,1.44411
1542,1.44411
1542.2,1.4441
1542.4,1.4441
1542.6,1.4441
1542.8,1.4441
1543,1.44409
1543.2,1.44409
1543.4,1.44409
1543.6,1.44409
1543.8,1.44408
1544,1.44408
1544.2,1.44408
1544.4,1.44407
1544.6,1.44407
1544.8,1.44407
1545,1.44407
1545.2,1.44406
1545.4,1.44406
1545.6,1.44406
1545.8,1.44406
1546,1.44405
1546.2,1.44405
1546.4,1.44405
1546.6,1.44405
1546.8,1.44404
1547,1.44404
1547.2,1.44404
1547.4,1.44404
1547.6,1.44403
1547.8,1.44403
1548,1.44403
1548.2,1.44403
1548.4,1.44402
1548.6,1.44402
1548.8,1.44402
1549,1.44402
1549.2,1.44401
1549.4,1.44401
1549.6,1.44401
1549.8,1.444
1550,1.444
1550.2,1.444
1550.4,1.444
1550.6,1.44399
1550.8,1.44399
1551,1.44399
1551.2,1.44399
1551.4,1.44398
1551.6,1.44398
1551.8,1.44398
1552,1.44398
1552.2,1.44397
1552.4,1.44397
1552.6,1.44397
1552.8,1.44397
1553,1.44396
1553.2,1.44396
1553.4,1.44396
1553.6,1.44396
1553.8,1.44395
1554,1.44395
1554.2,1.44395
1554.4,1.44395
1554.6,1.44394
1554.8,1.44394
1555,1.44394
1555.2,1.44394
1555.4,1.44393
1555.6,1.44393
1555.8,1.44393
1556,1.44393
1556.2,1.44392
1556.4,1.44392
1556.6,1.44392
1556.8,1.44391
1557,1.44391
1557.2,1.44391
1557.4,1.44391
1557.6,1.4439
1557.8,1.4439
1558,1.4439
1558.2,1.4439
1558.4,1.44389
1558.6,1.44389
1558.8,1.44389
1559,1.44389
1559.2,1.44388
1559.4,1.44388
1559.6,1.44388
1559.8,1.44388
1560,1.44387
1560.2,1.44387
1560.4,1.44387
1560.6,1.44387
1560.8,1.44386
1561,1.44386
1561.2,1.44386
1561.4,1.44386
1561.6,1.44385
1561.8,1.44385
1562,1.44385
1562.2,1.44385
1562.4,1.44384
1562.6,1.44384
1562.8,1.44384
1563,1.44384
1563.2,1.44383
1563.4,1.44383
1563.6,1.44383
1563.8,1.44383
1564,1.44382
1564.2,1.44382
1564.4,1.44382
1564.6,1.44382
1564.8,1.44381
1565,1.44381
1565.2,1.44381
1565.4,1.44381
1565.6,1.4438
1565.8,1.4438
1566,1.4438
1566.2,1.4438
1566.4,1.44379
1566.6,1.44379
1566.8,1.44379
1567,1.44379
1567.2,1.44378
1567.4,1.44378
1567.6,1.44378
1567.8,1.44378
1568,1.44377
1568.2,1.44377
1568.4,1.44377
1568.6,1.44377
1568.8,1.44376
1569,1.44376
1569.2,1.44376
1569.4,1.44376
1569.6,1.44375
1569.8,1.44375
1570,1.44375
1570.2,1.44375
1570.4,1.44374
1570.6,1.44374
1570.8,1.44374
1571,1.44374
1571.2,1.44373
1571.4,1.44373
1571.6,1.44373
1571.8,1.44372
1572,1.44372
1572.2,1.44372
1572.4,1.44372
1572.6,1.44371
1572.8,1.44371
1573,1.44371
1573.2,1.44371
1573.4,1.4437
1573.6,1.4437
1573.8,1.4437
1574,1.4437
1574.2,1.44369
1574.4,1.44369
1574.6,1.44369
1574.8,1.44369
1575,1.44368
1575.2,1.44368
1575.4,1.44368
1575.6,1.44368
1575.8,1.44367
1576,1.44367
1576.2,1.44367
1576.4,1.44367
1576.6,1.44366
1576.8,1.44366
1577,1.44366
1577.2,1.44366
1577.4,1.44365
1577.6,1.44365
1577.8,1.44365
1578,1.44365
1578.2,1.44364
1578.4,1.44364
1578.6,1.44364
1578.8,1.44364
1579,1.44364
1579.2,1.44363
1579.4,1.44363
1579.6,1.44363
1579.8,1.44363
1580,1.44362
1580.2,1.44362
1580.4,1.44362
1580.6,1.44362
1580.8,1.44361
1581,1.44361
1581.2,1.44361
1581.4,1.44361
1581.6,1.4436
1581.8,1.4436
1582,1.4436
1582.2,1.4436
1582.4,1.44359
1582.6,1.44359
1582.8,1.44359
1583,1.44359
1583.2,1.44358
1583.4,1.44358
1583.6,1.44358
1583.8,1.44358
1584,1.44357
1584.2,1.44357
1584.4,1.44357
1584.6,1.44357
1584.8,1.44356
1585,1.44356
1585.2,1.44356
1585.4,1.44356
1585.6,1.44355
1585.8,1.44355
1586,1.44355
1586.2,1.44355
1586.4,1.44354
1586.6,1.44354
1586.8,1.44354
1587,1.44354
1587.2,1.44353
1587.4,1.44353
1587.6,1.44353
1587.8,1.44353
1588,1.44352
1588.2,1.44352
1588.4,1.44352
1588.6,1.44352
1588.8,1.44351
1589,1.44351
1589.2,1.44351
1589.4,1.44351
1589.6,1.4435
1589.8,1.4435
1590,1.4435
1590.2,1.4435
1590.4,1.44349
1590.6,1.44349
1590.8,1.44349
1591,1.44349
1591.2,1.44348
1591.4,1.44348
1591.6,1.44348
1591.8,1.44348
1592,1.44347
1592.2,1.44347
1592.4,1.44347
1592.6,1.44347
1592.8,1.44346
1593,1.44346
1593.2,1.44346
1593.4,1.44346
1593.6,1.44346
1593.8,1.44345
1594,1.44345
1594.2,1.44345
1594.4,1.44345
1594.6,1.44344
1594.8,1.44344
1595,1.44344
1595.2,1.44344
1595.4,1.44343
1595.6,1.44343
1595.8,1.44343
1596,1.44343
1596.2,1.44342
1596.4,1.44342
1596.6,1.44342
1596.8,1.44342
1597,1.44341
1597.2,1.44341
1597.4,1.44341
1597.6,1.44341
1597.8,1.4434
1598,1.4434
1598.2,1.4434
1598.4,1.4434
1598.6,1.44339
1598.8,1.44339
1599,1.44339
1599.2,1.44339
1599.4,1.44338
1599.6,1.44338
1599.8,1.44338
1600,1.44338
1600.2,1.44337
1600.4,1.44337
1600.6,1.44337
1600.8,1.44337
1601,1.44337
1601.2,1.44336
1601.4,1.44336
1601.6,1.44336
1601.8,1.44336
1602,1.44335
1602.2,1.44335
1602.4,1.44335
1602.6,1.44335
1602.8,1.44334
1603,1.44334
1603.2,1.44334
1603.4,1.44334
1603.6,1.44333
1603.8,1.44333
1604,1.44333
1604.2,1.44333
1604.4,1.44332
1604.6,1.44332
1604.8,1.44332
1605,1.44332
1605.2,1.44331
1605.4,1.44331
1605.6,1.44331
1605.8,1.44331
1606,1.4433
1606.2,1.4433
1606.4,1.4433
1606.6,1.4433
1606.8,1.4433
1607,1.44329
1607.2,1.44329
1607.4,1.44329
1607.6,1.44329
1607.8,1.44328
1608,1.44328
1608.2,1.44328
1608.4,1.44328
1608.6,1.44327
1608.8,1.44327
1609,1.44327
1609.2,1.44327
1609.4,1.44326
1609.6,1.44326
1609.8,1.44326
1610,1.44326
1610.2,1.44325
1610.4,1.44325
1610.6,1.44325
1610.8,1.44325
1611,1.44325
1611.2,1.44324
1611.4,1.44324
1611.6,1.44324
1611.8,1.44324
1612,1.44323
1612.2,1.44323
1612.4,1.44323
1612.6,1.44323
1612.8,1.44322
1613,1.44322
1613.2,1.44322
1613.4,1.44322
1613.6,1.44321
1613.8,1.44321
1614,1.44321
1614.2,1.44321
1614.4,1.4432
1614.6,1.4432
1614.8,1.4432
1615,1.4432
1615.2,1.44319
1615.4,1.44319
1615.6,1.44319
1615.8,1.44319
1616,1.44319
1616.2,1.44318
1616.4,1.44318
1616.6,1.44318
1616.8,1.44318
1617,1.44317
1617.2,1.44317
1617.4,1.44317
1617.6,1.44317
1617.8,1.44316
1618,1.44316
1618.2,1.44316
1618.4,1.44316
1618.6,1.44315
1618.8,1.44315
1619,1.44315
1619.2,1.44315
1619.4,1.44315
1619.6,1.44314
1619.8,1.44314
1620,1.44314
1620.2,1.44314
1620.4,1.44313
1620.6,1.44313
1620.8,1.44313
1621,1.44313
1621.2,1.44312
1621.4,1.44312
1621.6,1.44312
1621.8,1.44312
1622,1.44311
1622.2,1.44311
1622.4,1.44311
1622.6,1.44311
1622.8,1.44311
1623,1.4431
1623.2,1.4431
1623.4,1.4431
1623.6,1.4431
1623.8,1.44309
1624,1.44309
1624.2,1.44309
1624.4,1.44309
1624.6,1.44308
1624.8,1.44308
1625,1.44308
1625.2,1.44308
1625.4,1.44307
1625.6,1.44307
1625.8,1.44307
1626,1.44307
1626.2,1.44307
1626.4,1.44306
1626.6,1.44306
1626.8,1.44306
1627,1.44306
1627.2,1.44305
1627.4,1.44305
1627.6,1.44305
1627.8,1.44305
1628,1.44304
1628.2,1.44304
1628.4,1.44304
1628.6,1.44304
1628.8,1.44303
1629,1.44303
1629.2,1.44303
1629.4,1.44303
1629.6,1.44303
1629.8,1.44302
1630,1.44302
1630.2,1.44302
1630.4,1.44302
1630.6,1.44301
1630.8,1.44301
1631,1.44301
1631.2,1.44301
1631.4,1.443
1631.6,1.443
1631.8,1.443
1632,1.443
1632.2,1.44299
1632.4,1.44299
1632.6,1.44299
1632.8,1.44299
1633,1.44299
1633.2,1.44298
1633.4,1.44298
1633.6,1.44298
1633.8,1.44298
1634,1.44297
1634.2,1.44297
1634.4,1.44297
1634.6,1.44297
1634.8,1.44296
1635,1.44296
1635.2,1.44296
1635.4,1.44296
1635.6,1.44296
1635.8,1.44295
1636,1.44295
1636.2,1.44295
1636.4,1.44295
1636.6,1.44294
1636.8,1.44294
1637,1.44294
1637.2,1.44294
1637.4,1.44293
1637.6,1.44293
1637.8,1.44293
1638,1.44293
1638.2,1.44293
1638.4,1.44292
1638.6,1.44292
1638.8,1.44292
1639,1.44292
1639.2,1.44291
1639.4,1.44291
1639.6,1.44291
1639.8,1.44291
1640,1.4429
1640.2,1.4429
1640.4,1.4429
1640.6,1.4429
1640.8,1.4429
1641,1.44289
1641.2,1.44289
1641.4,1.44289
1641.6,1.44289
1641.8,1.44288
1642,1.44288
1642.2,1.44288
1642.4,1.44288
1642.6,1.44287
1642.8,1.44287
1643,1.44287
1643.2,1.44287
1643.4,1.44287
1643.6,1.44286
1643.8,1.44286
1644,1.44286
1644.2,1.44286
1644.4,1.44285
1644.6,1.44285
1644.8,1.44285
1645,1.44285
1645.2,1.44284
1645.4,1.44284
1645.6,1.44284
1645.8,1.44284
1646,1.44284
1646.2,1.44283
1646.4,1.44283
1646.6,1.44283
1646.8,1.44283
1647,1.44282
1647.2,1.44282
1647.4,1.44282
1647.6,1.44282
1647.8,1.44282
1648,1.44281
1648.2,1.44281
1648.4,1.44281
1648.6,1.44281
1648.8,1.4428
1649,1.4428
1649.2,1.4428
1649.4,1.4428
1649.6,1.44279
1649.8,1.44279
1650,1.44279
1650.2,1.44279
1650.4,1.44279
1650.6,1.44278
1650.8,1.44278
1651,1.44278
1651.2,1.44278
1651.4,1.44277
1651.6,1.44277
1651.8,1.44277
1652,1.44277
1652.2,1.44276
1652.4,1.44276
1652.6,1.44276
1652.8,1.44276
1653,1.44276
1653.2,1.44275
1653.4,1.44275
1653.6,1.44275
1653.8,1.44275
1654,1.44274
1654.2,1.44274
1654.4,1.44274
1654.6,1.44274
1654.8,1.44274
1655,1.44273
1655.2,1.44273
1655.4,1.44273
1655.6,1.44273
1655.8,1.44272
1656,1.44272
1656.2,1.44272
1656.4,1.44272
1656.6,1.44272
1656.8,1.44271
1657,1.44271
1657.2,1.44271
1657.4,1.44271
1657.6,1.4427
1657.8,1.4427
1658,1.4427
1658.2,1.4427
1658.4,1.44269
1658.6,1.44269
1658.8,1.44269
1659,1.44269
1659.2,1.44269
1659.4,1.44268
1659.6,1.44268
1659.8,1.44268
1660,1.44268
1660.2,1.44267
1660.4,1.44267
1660.6,1.44267
1660.8,1.44267
1661,1.44266
1661.2,1.44266
1661.4,1.44266
1661.6,1.44266
1661.8,1.44265
1662,1.44265
1662.2,1.44265
1662.4,1.44265
1662.6,1.44264
1662.8,1.44264
1663,1.44264
1663.2,1.44264
1663.4,1.44263
1663.6,1.44263
1663.8,1.44263
1664,1.44263
1664.2,1.44262
1664.4,1.44262
1664.6,1.44262
1664.8,1.44262
1665,1.44261
1665.2,1.44261
1665.4,1.44261
1665.6,1.44261
1665.8,1.4426
1666,1.4426
1666.2,1.4426
1666.4,1.4426
1666.6,1.44259
1666.8,1.44259
1667,1.44259
1667.2,1.44259
1667.4,1.44258
1667.6,1.44258
1667.8,1.44258
1668,1.44257
1668.2,1.44257
1668.4,1.44257
1668.6,1.44257
1668.8,1.44256
1669,1.44256
1669.2,1.44256
1669.4,1.44256
1669.6,1.44255
1669.8,1.44255
1670,1.44255
1670.2,1.44255
1670.4,1.44254
1670.6,1.44254
1670.8,1.44254
1671,1.44254
1671.2,1.44253
1671.4,1.44253
1671.6,1.44253
1671.8,1.44253
1672,1.44252
1672.2,1.44252
1672.4,1.44252
1672.6,1.44252
1672.8,1.44251
1673,1.44251
1673.2,1.44251
1673.4,1.44251
1673.6,1.4425
1673.8,1.4425
1674,1.4425
1674.2,1.4425
1674.4,1.44249
1674.6,1.44249
1674.8,1.44249
1675,1.44249
1675.2,1.44248
1675.4,1.44248
1675.6,1.44248
1675.8,1.44248
1676,1.44247
1676.2,1.44247
1676.4,1.44247
1676.6,1.44247
1676.8,1.44246
1677,1.44246
1677.2,1.44246
1677.4,1.44246
1677.6,1.44245
1677.8,1.44245
1678,1.44245
1678.2,1.44245
1678.4,1.44244
1678.6,1.44244
1678.8,1.44244
1679,1.44244
1679.2,1.44243
1679.4,1.44243
1679.6,1.44243
1679.8,1.44243
1680,1.44242
1680.2,1.44242
1680.4,1.44242
1680.6,1.44242
1680.8,1.44241
1681,1.44241
1681.2,1.44241
1681.4,1.44241
1681.6,1.4424
1681.8,1.4424
1682,1.4424
1682.2,1.4424
1682.4,1.44239
1682.6,1.44239
1682.8,1.44239
1683,1.44239
1683.2,1.44238
1683.4,1.44238
1683.6,1.44238
1683.8,1.44238
1684,1.44237
1684.2,1.44237
1684.4,1.44237
1684.6,1.44237
1684.8,1.44236
1685,1.44236
1685.2,1.44236
1685.4,1.44236
1685.6,1.44235
1685.8,1.44235
1686,1.44235
1686.2,1.44235
1686.4,1.44234
1686.6,1.44234
1686.8,1.44234
1687,1.44234
1687.2,1.44233
1687.4,1.44233
1687.6,1.44233
1687.8,1.44233
1688,1.44232
1688.2,1.44232
1688.4,1.44232
1688.6,1.44232
1688.8,1.44231
1689,1.44231
1689.2,1.44231
1689.4,1.44231
1689.6,1.4423
1689.8,1.4423
1690,1.4423
1690.2,1.4423
1690.4,1.44229
1690.6,1.44229
1690.8,1.44229
1691,1.44229
1691.2,1.44228
1691.4,1.44228
1691.6,1.44228
1691.8,1.44228
1692,1.44227
1692.2,1.44227
1692.4,1.44227
1692.6,1.44227
1692.8,1.44226
1693,1.44226
1693.2,1.44226
1693.4,1.44226
1693.6,1.44225
1693.8,1.44225
1694,1.44225
1694.2,1.44225
1694.4,1.44224
1694.6,1.44224
1694.8,1.44224
1695,1.44224
1695.2,1.44223
1695.4,1.44223
1695.6,1.44223
1695.8,1.44223
1696,1.44222
1696.2,1.44222
1696.4,1.44222
1696.6,1.44221
1696.8,1.44221
1697,1.44221
1697.2,1.44221
1697.4,1.4422
1697.6,1.4422
1697.8,1.4422
1698,1.4422
1698.2,1.44219
1698.4,1.44219
1698.6,1.44219
1698.8,1.44219
1699,1.44218
1699.2,1.44218
1699.4,1.44218
1699.6,1.44218
1699.8,1.44217
1700,1.44217
1700.2,1.44217
1700.4,1.44216
1700.6,1.44216
1700.8,1.44216
1701,1.44216
1701.2,1.44215
1701.4,1.44215
1701.6,1.44215
1701.8,1.44215
1702,1.44214
1702.2,1.44214
1702.4,1.44214
1702.6,1.44214
1702.8,1.44213
1703,1.44213
1703.2,1.44213
1703.4,1.44213
1703.6,1.44212
1703.8,1.44212
1704,1.44212
1704.2,1.44211
1704.4,1.44211
1704.6,1.44211
1704.8,1.44211
1705,1.4421
1705.2,1.4421
1705.4,1.4421
1705.6,1.4421
1705.8,1.44209
1706,1.44209
1706.2,1.44209
1706.4,1.44209
1706.6,1.44208
1706.8,1.44208
1707,1.44208
1707.2,1.44208
1707.4,1.44207
1707.6,1.44207
1707.8,1.44207
1708,1.44206
1708.2,1.44206
1708.4,1.44206
1708.6,1.44206
1708.8,1.44205
1709,1.44205
1709.2,1.44205
1709.4,1.44205
1709.6,1.44204
1709.8,1.44204
1710,1.44204
1710.2,1.44204
1710.4,1.44203
1710.6,1.44203
1710.8,1.44203
1711,1.44202
1711.2,1.44202
1711.4,1.44202
1711.6,1.44202
1711.8,1.44201
1712,1.44201
1712.2,1.44201
1712.4,1.442
1712.6,1.442
1712.8,1.442
1713,1.442
1713.2,1.44199
1713.4,1.44199
1713.6,1.44199
1713.8,1.44199
1714,1.44198
1714.2,1.44198
1714.4,1.44198
1714.6,1.44197
1714.8,1.44197
1715,1.44197
1715.2,1.44197
1715.4,1.44196
1715.6,1.44196
1715.8,1.44196
1716,1.44196
1716.2,1.44195
1716.4,1.44195
1716.6,1.44195
1716.8,1.44194
1717,1.44194
1717.2,1.44194
1717.4,1.44194
1717.6,1.44193
1717.8,1.44193
1718,1.44193
1718.2,1.44192
1718.4,1.44192
1718.6,1.44192
1718.8,1.44192
1719,1.44191
1719.2,1.44191
1719.4,1.44191
1719.6,1.44191
1719.8,1.4419
1720,1.4419
1720.2,1.4419
1720.4,1.44189
1720.6,1.44189
1720.8,1.44189
1721,1.44189
1721.2,1.44188
1721.4,1.44188
1721.6,1.44188
1721.8,1.44188
1722,1.44187
1722.2,1.44187
1722.4,1.44187
1722.6,1.44186
1722.8,1.44186
1723,1.44186
1723.2,1.44186
1723.4,1.44185
1723.6,1.44185
1723.8,1.44185
1724,1.44185
1724.2,1.44184
1724.4,1.44184
1724.6,1.44184
1724.8,1.44183
1725,1.44183
1725.2,1.44183
1725.4,1.44183
1725.6,1.44182
1725.8,1.44182
1726,1.44182
1726.2,1.44182
1726.4,1.44181
1726.6,1.44181
1726.8,1.44181
1727,1.4418
1727.2,1.4418
1727.4,1.4418
1727.6,1.4418
1727.8,1.44179
1728,1.44179
1728.2,1.44179
1728.4,1.44179
1728.6,1.44178
1728.8,1.44178
1729,1.44178
1729.2,1.44177
1729.4,1.44177
1729.6,1.44177
1729.8,1.44177
1730,1.44176
1730.2,1.44176
1730.4,1.44176
1730.6,1.44176
1730.8,1.44175
1731,1.44175
1731.2,1.44175
1731.4,1.44174
1731.6,1.44174
1731.8,1.44174
1732,1.44174
1732.2,1.44173
1732.4,1.44173
1732.6,1.44173
1732.8,1.44173
1733,1.44172
1733.2,1.44172
1733.4,1.44172
1733.6,1.44172
1733.8,1.44171
1734,1.44171
1734.2,1.44171
1734.4,1.4417
1734.6,1.4417
1734.8,1.4417
1735,1.4417
1735.2,1.44169
1735.4,1.44169
1735.6,1.44169
1735.8,1.44169
1736,1.44168
1736.2,1.44168
1736.4,1.44168
1736.6,1.44167
1736.8,1.44167
1737,1.44167
1737.2,1.44167
1737.4,1.44166
1737.6,1.44166
1737.8,1.44166
1738,1.44166
1738.2,1.44165
1738.4,1.44165
1738.6,1.44165
1738.8,1.44165
1739,1.44164
1739.2,1.44164
1739.4,1.44164
1739.6,1.44163
1739.8,1.44163
1740,1.44163
1740.2,1.44163
1740.4,1.44162
1740.6,1.44162
1740.8,1.44162
1741,1.44162
1741.2,1.44161
1741.4,1.44161
1741.6,1.44161
1741.8,1.44161
1742,1.4416
1742.2,1.4416
1742.4,1.4416
1742.6,1.44159
1742.8,1.44159
1743,1.44159
1743.2,1.44159
1743.4,1.44158
1743.6,1.44158
1743.8,1.44158
1744,1.44158
1744.2,1.44157
1744.4,1.44157
1744.6,1.44157
1744.8,1.44157
1745,1.44156
1745.2,1.44156
1745.4,1.44156
1745.6,1.44155
1745.8,1.44155
1746,1.44155
1746.2,1.44155
1746.4,1.44154
1746.6,1.44154
1746.8,1.44154
1747,1.44154
1747.2,1.44153
1747.4,1.44153
1747.6,1.44153
1747.8,1.44153
1748,1.44152
1748.2,1.44152
1748.4,1.44152
1748.6,1.44151
1748.8,1.44151
1749,1.44151
1749.2,1.44151
1749.4,1.4415
1749.6,1.4415
1749.8,1.4415
1750,1.4415
1750.2,1.44149
1750.4,1.44149
1750.6,1.44149
1750.8,1.44149
1751,1.44148
1751.2,1.44148
1751.4,1.44148
1751.6,1.44147
1751.8,1.44147
1752,1.44147
1752.2,1.44147
1752.4,1.44146
1752.6,1.44146
1752.8,1.44146
1753,1.44146
1753.2,1.44145
1753.4,1.44145
1753.6,1.44145
1753.8,1.44145
1754,1.44144
1754.2,1.44144
1754.4,1.44144
1754.6,1.44144
1754.8,1.44143
1755,1.44143
1755.2,1.44143
1755.4,1.44142
1755.6,1.44142
1755.8,1.44142
1756,1.44142
1756.2,1.44141
1756.4,1.44141
1756.6,1.44141
1756.8,1.44141
1757,1.4414
1757.2,1.4414
1757.4,1.4414
1757.6,1.4414
1757.8,1.44139
1758,1.44139
1758.2,1.44139
1758.4,1.44139
1758.6,1.44138
1758.8,1.44138
1759,1.44138
1759.2,1.44137
1759.4,1.44137
1759.6,1.44137
1759.8,1.44137
1760,1.44136
1760.2,1.44136
1760.4,1.44136
1760.6,1.44136
1760.8,1.44135
1761,1.44135
1761.2,1.44135
1761.4,1.44135
1761.6,1.44134
1761.8,1.44134
1762,1.44134
1762.2,1.44134
1762.4,1.44133
1762.6,1.44133
1762.8,1.44133
1763,1.44133
1763.2,1.44132
1763.4,1.44132
1763.6,1.44132
1763.8,1.44131
1764,1.44131
1764.2,1.44131
1764.4,1.44131
1764.6,1.4413
1764.8,1.4413
1765,1.4413
1765.2,1.4413
1765.4,1.44129
1765.6,1.44129
1765.8,1.44129
1766,1.44129
1766.2,1.44128
1766.4,1.44128
1766.6,1.44128
1766.8,1.44128
1767,1.44127
1767.2,1.44127
1767.4,1.44127
1767.6,1.44127
1767.8,1.44126
1768,1.44126
1768.2,1.44126
1768.4,1.44126
1768.6,1.44125
1768.8,1.44125
1769,1.44125
1769.2,1.44124
1769.4,1.44124
1769.6,1.44124
1769.8,1.44124
1770,1.44123
1770.2,1.44123
1770.4,1.44123
1770.6,1.44123
1770.8,1.44122
1771,1.44122
1771.2,1.44122
1771.4,1.44122
1771.6,1.44121
1771.8,1.44121
1772,1.44121
1772.2,1.44121
1772.4,1.4412
1772.6,1.4412
1772.8,1.4412
1773,1.4412
1773.2,1.44119
1773.4,1.44119
1773.6,1.44119
1773.8,1.44119
1774,1.44118
1774.2,1.44118
1774.4,1.44118
1774.6,1.44117
1774.8,1.44117
1775,1.44117
1775.2,1.44117
1775.4,1.44116
1775.6,1.44116
1775.8,1.44116
1776,1.44116
1776.2,1.44115
1776.4,1.44115
1776.6,1.44115
1776.8,1.44115
1777,1.44114
1777.2,1.44114
1777.4,1.44114
1777.6,1.44114
1777.8,1.44113
1778,1.44113
1778.2,1.44113
1778.4,1.44113
1778.6,1.44112
1778.8,1.44112
1779,1.44112
1779.2,1.44112
1779.4,1.44111
1779.6,1.44111
1779.8,1.44111
1780,1.44111
1780.2,1.4411
1780.4,1.4411
1780.6,1.4411
1780.8,1.4411
1781,1.44109
1781.2,1.44109
1781.4,1.44109
1781.6,1.44109
1781.8,1.44108
1782,1.44108
1782.2,1.44108
1782.4,1.44107
1782.6,1.44107
1782.8,1.44107
1783,1.44107
1783.2,1.44106
1783.4,1.44106
1783.6,1.44106
1783.8,1.44106
1784,1.44105
1784.2,1.44105
1784.4,1.44105
1784.6,1.44105
1784.8,1.44104
1785,1.44104
1785.2,1.44104
1785.4,1.44104
1785.6,1.44103
1785.8,1.44103
1786,1.44103
1786.2,1.44103
1786.4,1.44102
1786.6,1.44102
1786.8,1.44102
1787,1.44102
1787.2,1.44101
1787.4,1.44101
1787.6,1.44101
1787.8,1.44101
1788,1.441
1788.2,1.441
1788.4,1.441
1788.6,1.441
1788.8,1.44099
1789,1.44099
1789.2,1.44099
1789.4,1.44099
1789.6,1.44098
1789.8,1.44098
1790,1.44098
1790.2,1.44098
1790.4,1.44097
1790.6,1.44097
1790.8,1.44097
1791,1.44097
1791.2,1.44096
1791.4,1.44096
1791.6,1.44096
1791.8,1.44096
1792,1.44095
1792.2,1.44095
1792.4,1.44095
1792.6,1.44095
1792.8,1.44094
1793,1.44094
1793.2,1.44094
1793.4,1.44094
1793.6,1.44093
1793.8,1.44093
1794,1.44093
1794.2,1.44093
1794.4,1.44092
1794.6,1.44092
1794.8,1.44092
1795,1.44092
1795.2,1.44091
1795.4,1.44091
1795.6,1.44091
1795.8,1.44091
1796,1.4409
1796.2,1.4409
1796.4,1.4409
1796.6,1.4409
1796.8,1.44089
1797,1.44089
1797.2,1.44089
1797.4,1.44089
1797.6,1.44088
1797.8,1.44088
1798,1.44088
1798.2,1.44088
1798.4,1.44087
1798.6,1.44087
1798.8,1.44087
1799,1.44086
1799.2,1.44086
1799.4,1.44086
1799.6,1.44086
1799.8,1.44085
1800,1.44085
1800.2,1.44085
1800.4,1.44085
1800.6,1.44084
1800.8,1.44084
1801,1.44084
1801.2,1.44084
1801.4,1.44083
1801.6,1.44083
1801.8,1.44083
1802,1.44083
1802.2,1.44082
1802.4,1.44082
1802.6,1.44082
1802.8,1.44082
1803,1.44081
1803.2,1.44081
1803.4,1.44081
1803.6,1.44081
1803.8,1.4408
1804,1.4408
1804.2,1.4408
1804.4,1.4408
1804.6,1.4408
1804.8,1.44079
1805,1.44079
1805.2,1.44079
1805.4,1.44079
1805.6,1.44078
1805.8,1.44078
1806,1.44078
1806.2,1.44078
1806.4,1.44077
1806.6,1.44077
1806.8,1.44077
1807,1.44077
1807.2,1.44076
1807.4,1.44076
1807.6,1.44076
1807.8,1.44076
1808,1.44075
1808.2,1.44075
1808.4,1.44075
1808.6,1.44075
1808.8,1.44074
1809,1.44074
1809.2,1.44074
1809.4,1.44074
1809.6,1.44073
1809.8,1.44073
1810,1.44073
1810.2,1.44073
1810.4,1.44072
1810.6,1.44072
1810.8,1.44072
1811,1.44072
1811.2,1.44071
1811.4,1.44071
1811.6,1.44071
1811.8,1.44071
1812,1.4407
1812.2,1.4407
1812.4,1.4407
1812.6,1.4407
1812.8,1.44069
1813,1.44069
1813.2,1.44069
1813.4,1.44069
1813.6,1.44068
1813.8,1.44068
1814,1.44068
1814.2,1.44067
1814.4,1.44067
1814.6,1.44067
1814.8,1.44066
1815,1.44066
1815.2,1.44066
1815.4,1.44065
1815.6,1.44065
1815.8,1.44065
1816,1.44065
1816.2,1.44064
1816.4,1.44064
1816.6,1.44064
1816.8,1.44063
1817,1.44063
1817.2,1.44063
1817.4,1.44062
1817.6,1.44062
1817.8,1.44062
1818,1.44062
1818.2,1.44061
1818.4,1.44061
1818.6,1.44061
1818.8,1.4406
1819,1.4406
1819.2,1.4406
1819.4,1.44059
1819.6,1.44059
1819.8,1.44059
1820,1.44059
1820.2,1.44058
1820.4,1.44058
1820.6,1.44058
1820.8,1.44057
1821,1.44057
1821.2,1.44057
1821.4,1.44056
1821.6,1.44056
1821.8,1.44056
1822,1.44056
1822.2,1.44055
1822.4,1.44055
1822.6,1.44055
1822.8,1.44054
1823,1.44054
1823.2,1.44054
1823.4,1.44054
1823.6,1.44053
1823.8,1.44053
1824,1.44053
1824.2,1.44052
1824.4,1.44052
1824.6,1.44052
1824.8,1.44051
1825,1.44051
1825.2,1.44051
1825.4,1.44051
1825.6,1.4405
1825.8,1.4405
1826,1.4405
1826.2,1.44049
1826.4,1.44049
1826.6,1.44049
1826.8,1.44048
1827,1.44048
1827.2,1.44048
1827.4,1.44048
1827.6,1.44047
1827.8,1.44047
1828,1.44047
1828.2,1.44046
1828.4,1.44046
1828.6,1.44046
1828.8,1.44045
1829,1.44045
1829.2,1.44045
1829.4,1.44045
1829.6,1.44044
1829.8,1.44044
1830,1.44044
1830.2,1.44043
1830.4,1.44043
1830.6,1.44043
1830.8,1.44043
1831,1.44042
1831.2,1.44042
1831.4,1.44042
1831.6,1.44041
1831.8,1.44041
1832,1.44041
1832.2,1.4404
1832.4,1.4404
1832.6,1.4404
1832.8,1.4404
1833,1.44039
1833.2,1.44039
1833.4,1.44039
1833.6,1.44038
1833.8,1.44038
1834,1.44038
1834.2,1.44038
1834.4,1.44037
1834.6,1.44037
1834.8,1.44037
1835,1.44036
1835.2,1.44036
1835.4,1.44036
1835.6,1.44035
1835.8,1.44035
1836,1.44035
1836.2,1.44035
1836.4,1.44034
1836.6,1.44034
1836.8,1.44034
1837,1.44033
1837.2,1.44033
1837.4,1.44033
1837.6,1.44033
1837.8,1.44032
1838,1.44032
1838.2,1.44032
1838.4,1.44031
1838.6,1.44031
1838.8,1.44031
1839,1.4403
1839.2,1.4403
1839.4,1.4403
1839.6,1.4403
1839.8,1.44029
1840,1.44029
1840.2,1.44029
1840.4,1.44028
1840.6,1.44028
1840.8,1.44028
1841,1.44028
1841.2,1.44027
1841.4,1.44027
1841.6,1.44027
1841.8,1.44026
1842,1.44026
1842.2,1.44026
1842.4,1.44025
1842.6,1.44025
1842.8,1.44025
1843,1.44025
1843.2,1.44024
1843.4,1.44024
1843.6,1.44024
1843.8,1.44023
1844,1.44023
1844.2,1.44023
1844.4,1.44023
1844.6,1.44022
1844.8,1.44022
1845,1.44022
1845.2,1.44021
1845.4,1.44021
1845.6,1.44021
1845.8,1.44021
1846,1.4402
1846.2,1.4402
1846.4,1.4402
1846.6,1.44019
1846.8,1.44019
1847,1.44019
1847.2,1.44018
1847.4,1.44018
1847.6,1.44018
1847.8,1.44018
1848,1.44017
1848.2,1.44017
1848.4,1.44017
1848.6,1.44016
1848.8,1.44016
1849,1.44016
1849.2,1.44016
1849.4,1.44015
1849.6,1.44015
1849.8,1.44015
1850,1.44014
1850.2,1.44014
1850.4,1.44014
1850.6,1.44014
1850.8,1.44013
1851,1.44013
1851.2,1.44013
1851.4,1.44012
1851.6,1.44012
1851.8,1.44012
1852,1.44012
1852.2,1.44011
1852.4,1.44011
1852.6,1.44011
1852.8,1.4401
1853,1.4401
1853.2,1.4401
1853.4,1.4401
1853.6,1.44009
1853.8,1.44009
1854,1.44009
1854.2,1.44008
1854.4,1.44008
1854.6,1.44008
1854.8,1.44007
1855,1.44007
1855.2,1.44007
1855.4,1.44007
1855.6,1.44006
1855.8,1.44006
1856,1.44006
1856.2,1.44005
1856.4,1.44005
1856.6,1.44005
1856.8,1.44005
1857,1.44004
1857.2,1.44004
1857.4,1.44004
1857.6,1.44003
1857.8,1.44003
1858,1.44003
1858.2,1.44003
1858.4,1.44002
1858.6,1.44002
1858.8,1.44002
1859,1.44001
1859.2,1.44001
1859.4,1.44001
1859.6,1.44001
1859.8,1.44
1860,1.44
1860.2,1.44
1860.4,1.43999
1860.6,1.43999
1860.8,1.43999
1861,1.43999
1861.2,1.43998
1861.4,1.43998
1861.6,1.43998
1861.8,1.43997
1862,1.43997
1862.2,1.43997
1862.4,1.43997
1862.6,1.43996
1862.8,1.43996
1863,1.43996
1863.2,1.43995
1863.4,1.43995
1863.6,1.43995
1863.8,1.43995
1864,1.43994
1864.2,1.43994
1864.4,1.43994
1864.6,1.43993
1864.8,1.43993
1865,1.43993
1865.2,1.43993
1865.4,1.43992
1865.6,1.43992
1865.8,1.43992
1866,1.43991
1866.2,1.43991
1866.4,1.43991
1866.6,1.43991
1866.8,1.4399
1867,1.4399
1867.2,1.4399
1867.4,1.43989
1867.6,1.43989
1867.8,1.43989
1868,1.43989
1868.2,1.43988
1868.4,1.43988
1868.6,1.43988
1868.8,1.43987
1869,1.43987
1869.2,1.43987
1869.4,1.43987
1869.6,1.43986
1869.8,1.43986
1870,1.43986
1870.2,1.43985
1870.4,1.43985
1870.6,1.43985
1870.8,1.43985
1871,1.43984
1871.2,1.43984
1871.4,1.43984
1871.6,1.43984
1871.8,1.43983
1872,1.43983
1872.2,1.43983
1872.4,1.43982
1872.6,1.43982
1872.8,1.43982
1873,1.43982
1873.2,1.43981
1873.4,1.43981
1873.6,1.43981
1873.8,1.4398
1874,1.4398
1874.2,1.4398
1874.4,1.4398
1874.6,1.43979
1874.8,1.43979
1875,1.43979
1875.2,1.43978
1875.4,1.43978
1875.6,1.43978
1875.8,1.43978
1876,1.43977
1876.2,1.43977
1876.4,1.43977
1876.6,1.43976
1876.8,1.43976
1877,1.43976
1877.2,1.43976
1877.4,1.43975
1877.6,1.43975
1877.8,1.43975
1878,1.43974
1878.2,1.43974
1878.4,1.43974
1878.6,1.43974
1878.8,1.43973
1879,1.43973
1879.2,1.43973
1879.4,1.43973
1879.6,1.43972
1879.8,1.43972
1880,1.43972
1880.2,1.43971
1880.4,1.43971
1880.6,1.43971
1880.8,1.43971
1881,1.4397
1881.2,1.4397
1881.4,1.4397
1881.6,1.43969
1881.8,1.43969
1882,1.43969
1882.2,1.43969
1882.4,1.43968
1882.6,1.43968
1882.8,1.43968
1883,1.43967
1883.2,1.43967
1883.4,1.43967
1883.6,1.43967
1883.8,1.43966
1884,1.43966
1884.2,1.43966
1884.4,1.43966
1884.6,1.43965
1884.8,1.43965
1885,1.43965
1885.2,1.43964
1885.4,1.43964
1885.6,1.43964
1885.8,1.43964
1886,1.43963
1886.2,1.43963
1886.4,1.43963
1886.6,1.43962
1886.8,1.43962
1887,1.43962
1887.2,1.43962
1887.4,1.43961
1887.6,1.43961
1887.8,1.43961
1888,1.4396
1888.2,1.4396
1888.4,1.4396
1888.6,1.4396
1888.8,1.43959
1889,1.43959
1889.2,1.43959
1889.4,1.43959
1889.6,1.43958
1889.8,1.43958
1890,1.43958
1890.2,1.43957
1890.4,1.43957
1890.6,1.43957
1890.8,1.43957
1891,1.43956
1891.2,1.43956
1891.4,1.43956
1891.6,1.43955
1891.8,1.43955
1892,1.43955
1892.2,1.43955
1892.4,1.43954
1892.6,1.43954
1892.8,1.43954
1893,1.43954
1893.2,1.43953
1893.4,1.43953
1893.6,1.43953
1893.8,1.43952
1894,1.43952
1894.2,1.43952
1894.4,1.43952
1894.6,1.43951
1894.8,1.43951
1895,1.43951
1895.2,1.43951
1895.4,1.4395
1895.6,1.4395
1895.8,1.4395
1896,1.43949
1896.2,1.43949
1896.4,1.43949
1896.6,1.43949
1896.8,1.43948
1897,1.43948
1897.2,1.43948
1897.4,1.43947
1897.6,1.43947
1897.8,1.43947
1898,1.43947
1898.2,1.43946
1898.4,1.43946
1898.6,1.43946
1898.8,1.43946
1899,1.43945
1899.2,1.43945
1899.4,1.43945
1899.6,1.43944
1899.8,1.43944
1900,1.43944
1900.2,1.43944
1900.4,1.43943
1900.6,1.43943
1900.8,1.43943
1901,1.43943
1901.2,1.43942
1901.4,1.43942
1901.6,1.43942
1901.8,1.43941
1902,1.43941
1902.2,1.43941
1902.4,1.43941
1902.6,1.4394
1902.8,1.4394
1903,1.4394
1903.2,1.4394
1903.4,1.43939
1903.6,1.43939
1903.8,1.43939
1904,1.43938
1904.2,1.43938
1904.4,1.43938
1904.6,1.43938
1904.8,1.43937
1905,1.43937
1905.2,1.43937
1905.4,1.43937
1905.6,1.43936
1905.8,1.43936
1906,1.43936
1906.2,1.43935
1906.4,1.43935
1906.6,1.43935
1906.8,1.43935
1907,1.43934
1907.2,1.43934
1907.4,1.43934
1907.6,1.43933
1907.8,1.43933
1908,1.43933
1908.2,1.43933
1908.4,1.43932
1908.6,1.43932
1908.8,1.43932
1909,1.43932
1909.2,1.43931
1909.4,1.43931
1909.6,1.43931
1909.8,1.43931
1910,1.4393
1910.2,1.4393
1910.4,1.4393
1910.6,1.43929
1910.8,1.43929
1911,1.43929
1911.2,1.43929
1911.4,1.43928
1911.6,1.43928
1911.8,1.43928
1912,1.43928
1912.2,1.43927
1912.4,1.43927
1912.6,1.43927
1912.8,1.43926
1913,1.43926
1913.2,1.43926
1913.4,1.43926
1913.6,1.43925
1913.8,1.43925
1914,1.43925
1914.2,1.43925
1914.4,1.43924
1914.6,1.43924
1914.8,1.43924
1915,1.43923
1915.2,1.43923
1915.4,1.43923
1915.6,1.43923
1915.8,1.43922
1916,1.43922
1916.2,1.43922
1916.4,1.43922
1916.6,1.43921
1916.8,1.43921
1917,1.43921
1917.2,1.4392
1917.4,1.4392
1917.6,1.4392
1917.8,1.4392
1918,1.43919
1918.2,1.43919
1918.4,1.43919
1918.6,1.43919
1918.8,1.43918
1919,1.43918
1919.2,1.43918
1919.4,1.43918
1919.6,1.43917
1919.8,1.43917
1920,1.43917
1920.2,1.43916
1920.4,1.43916
1920.6,1.43916
1920.8,1.43916
1921,1.43915
1921.2,1.43915
1921.4,1.43915
1921.6,1.43915
1921.8,1.43914
1922,1.43914
1922.2,1.43914
1922.4,1.43913
1922.6,1.43913
1922.8,1.43913
1923,1.43913
1923.2,1.43912
1923.4,1.43912
1923.6,1.43912
1923.8,1.43912
1924,1.43911
1924.2,1.43911
1924.4,1.43911
1924.6,1.43911
1924.8,1.4391
1925,1.4391
1925.2,1.4391
1925.4,1.43909
1925.6,1.43909
1925.8,1.43909
1926,1.43909
1926.2,1.43908
1926.4,1.43908
1926.6,1.43908
1926.8,1.43908
1927,1.43907
1927.2,1.43907
1927.4,1.43907
1927.6,1.43907
1927.8,1.43906
1928,1.43906
1928.2,1.43906
1928.4,1.43905
1928.6,1.43905
1928.8,1.43905
1929,1.43905
1929.2,1.43904
1929.4,1.43904
1929.6,1.43904
1929.8,1.43904
1930,1.43903
1930.2,1.43903
1930.4,1.43903
1930.6,1.43903
1930.8,1.43902
1931,1.43902
1931.2,1.43902
1931.4,1.43901
1931.6,1.43901
1931.8,1.43901
1932,1.43901
1932.2,1.439
1932.4,1.439
1932.6,1.439
1932.8,1.439
1933,1.43899
1933.2,1.43899
1933.4,1.43899
1933.6,1.43899
1933.8,1.43898
1934,1.43898
1934.2,1.43898
1934.4,1.43897
1934.6,1.43897
1934.8,1.43897
1935,1.43897
1935.2,1.43896
1935.4,1.43896
1935.6,1.43896
1935.8,1.43896
1936,1.43895
1936.2,1.43895
1936.4,1.43895
1936.6,1.43895
1936.8,1.43894
1937,1.43894
1937.2,1.43894
1937.4,1.43893
1937.6,1.43893
1937.8,1.43893
1938,1.43893
1938.2,1.43892
1938.4,1.43892
1938.6,1.43892
1938.8,1.43892
1939,1.43891
1939.2,1.43891
1939.4,1.43891
1939.6,1.43891
1939.8,1.4389
1940,1.4389
1940.2,1.4389
1940.4,1.4389
1940.6,1.43889
1940.8,1.43889
1941,1.43889
1941.2,1.43888
1941.4,1.43888
1941.6,1.43888
1941.8,1.43888
1942,1.43887
1942.2,1.43887
1942.4,1.43887
1942.6,1.43887
1942.8,1.43886
1943,1.43886
1943.2,1.43886
1943.4,1.43886
1943.6,1.43885
1943.8,1.43885
1944,1.43885
1944.2,1.43885
1944.4,1.43884
1944.6,1.43884
1944.8,1.43884
1945,1.43883
1945.2,1.43883
1945.4,1.43883
1945.6,1.43883
1945.8,1.43882
1946,1.43882
1946.2,1.43882
1946.4,1.43882
1946.6,1.43881
1946.8,1.43881
1947,1.43881
1947.2,1.43881
1947.4,1.4388
1947.6,1.4388
1947.8,1.4388
1948,1.4388
1948.2,1.43879
1948.4,1.43879
1948.6,1.43879
1948.8,1.43879
1949,1.43878
1949.2,1.43878
1949.4,1.43878
1949.6,1.43877
1949.8,1.43877
1950,1.43877
1950.2,1.43877
1950.4,1.43876
1950.6,1.43876
1950.8,1.43876
1951,1.43876
1951.2,1.43875
1951.4,1.43875
1951.6,1.43875
1951.8,1.43875
1952,1.43874
1952.2,1.43874
1952.4,1.43874
1952.6,1.43874
1952.8,1.43873
1953,1.43873
1953.2,1.43873
1953.4,1.43873
1953.6,1.43872
1953.8,1.43872
1954,1.43872
1954.2,1.43871
1954.4,1.43871
1954.6,1.43871
1954.8,1.43871
1955,1.4387
1955.2,1.4387
1955.4,1.4387
1955.6,1.4387
1955.8,1.43869
1956,1.43869
1956.2,1.43869
1956.4,1.43869
1956.6,1.43868
1956.8,1.43868
1957,1.43868
1957.2,1.43868
1957.4,1.43867
1957.6,1.43867
1957.8,1.43867
1958,1.43867
1958.2,1.43866
1958.4,1.43866
1958.6,1.43866
1958.8,1.43866
1959,1.43865
1959.2,1.43865
1959.4,1.43865
1959.6,1.43864
1959.8,1.43864
1960,1.43864
1960.2,1.43864
1960.4,1.43863
1960.6,1.43863
1960.8,1.43863
1961,1.43863
1961.2,1.43862
1961.4,1.43862
1961.6,1.43862
1961.8,1.43862
1962,1.43861
1962.2,1.43861
1962.4,1.43861
1962.6,1.43861
1962.8,1.4386
1963,1.4386
1963.2,1.4386
1963.4,1.4386
1963.6,1.43859
1963.8,1.43859
1964,1.43859
1964.2,1.43859
1964.4,1.43858
1964.6,1.43858
1964.8,1.43858
1965,1.43858
1965.2,1.43857
1965.4,1.43857
1965.6,1.43857
1965.8,1.43856
1966,1.43856
1966.2,1.43856
1966.4,1.43856
1966.6,1.43855
1966.8,1.43855
1967,1.43855
1967.2,1.43855
1967.4,1.43854
1967.6,1.43854
1967.8,1.43854
1968,1.43854
1968.2,1.43853
1968.4,1.43853
1968.6,1.43853
1968.8,1.43853
1969,1.43852
1969.2,1.43852
1969.4,1.43852
1969.6,1.43852
1969.8,1.43851
1970,1.43851
1970.2,1.43851
1970.4,1.43851
1970.6,1.4385
1970.8,1.4385
1971,1.4385
1971.2,1.43849
1971.4,1.43849
1971.6,1.43849
1971.8,1.43848
1972,1.43848
1972.2,1.43848
1972.4,1.43847
1972.6,1.43847
1972.8,1.43847
1973,1.43847
1973.2,1.43846
1973.4,1.43846
1973.6,1.43846
1973.8,1.43845
1974,1.43845
1974.2,1.43845
1974.4,1.43844
1974.6,1.43844
1974.8,1.43844
1975,1.43844
1975.2,1.43843
1975.4,1.43843
1975.6,1.43843
1975.8,1.43842
1976,1.43842
1976.2,1.43842
1976.4,1.43841
1976.6,1.43841
1976.8,1.43841
1977,1.4384
1977.2,1.4384
1977.4,1.4384
1977.6,1.4384
1977.8,1.43839
1978,1.43839
1978.2,1.43839
1978.4,1.43838
1978.6,1.43838
1978.8,1.43838
1979,1.43837
1979.2,1.43837
1979.4,1.43837
1979.6,1.43837
1979.8,1.43836
1980,1.43836
1980.2,1.43836
1980.4,1.43835
1980.6,1.43835
1980.8,1.43835
1981,1.43834
1981.2,1.43834
1981.4,1.43834
1981.6,1.43833
1981.8,1.43833
1982,1.43833
1982.2,1.43833
1982.4,1.43832
1982.6,1.43832
1982.8,1.43832
1983,1.43831
1983.2,1.43831
1983.4,1.43831
1983.6,1.4383
1983.8,1.4383
1984,1.4383
1984.2,1.4383
1984.4,1.43829
1984.6,1.43829
1984.8,1.43829
1985,1.43828
1985.2,1.43828
1985.4,1.43828
1985.6,1.43827
1985.8,1.43827
1986,1.43827
1986.2,1.43827
1986.4,1.43826
1986.6,1.43826
1986.8,1.43826
1987,1.43825
1987.2,1.43825
1987.4,1.43825
1987.6,1.43824
1987.8,1.43824
1988,1.43824
1988.2,1.43824
1988.4,1.43823
1988.6,1.43823
1988.8,1.43823
1989,1.43822
1989.2,1.43822
1989.4,1.43822
1989.6,1.43821
1989.8,1.43821
1990,1.43821
1990.2,1.43821
1990.4,1.4382
1990.6,1.4382
1990.8,1.4382
1991,1.43819
1991.2,1.43819
1991.4,1.43819
1991.6,1.43818
1991.8,1.43818
1992,1.43818
1992.2,1.43818
1992.4,1.43817
1992.6,1.43817
1992.8,1.43817
1993,1.43816
1993.2,1.43816
1993.4,1.43816
1993.6,1.43815
1993.8,1.43815
1994,1.43815
1994.2,1.43815
1994.4,1.43814
1994.6,1.43814
1994.8,1.43814
1995,1.43813
1995.2,1.43813
1995.4,1.43813
1995.6,1.43812
1995.8,1.43812
1996,1.43812
1996.2,1.43812
1996.4,1.43811
1996.6,1.43811
1996.8,1.43811
1997,1.4381
1997.2,1.4381
1997.4,1.4381
1997.6,1.43809
1997.8,1.43809
1998,1.43809
1998.2,1.43809
1998.4,1.43808
1998.6,1.43808
1998.8,1.43808
1999,1.43807
1999.2,1.43807
1999.4,1.43807
1999.6,1.43806
1999.8,1.43806
2000,1.43806
